Temperature (K)	Pressure (bar)	Density (l, mol/l)	Volume (l, l/mol)	Internal Energy (l, kJ/mol)	Enthalpy (l, kJ/mol)	Entropy (l, J/mol*K)	Cv (l, J/mol*K)	Cp (l, J/mol*K)	Sound Spd. (l, m/s)	Joule-Thomson (l, K/bar)	Viscosity (l, uPa*s)	Therm. Cond. (l, W/m*K)	Surf. Tension (l, N/m)	Density (v, mol/l)	Volume (v, l/mol)	Internal Energy (v, kJ/mol)	Enthalpy (v, kJ/mol)	Entropy (v, J/mol*K)	Cv (v, J/mol*K)	Cp (v, J/mol*K)	Sound Spd. (v, m/s)	Joule-Thomson (v, K/bar)	Viscosity (v, uPa*s)	Therm. Cond. (v, W/m*K)
253.65	20.000	23.389	0.042755	6.7589	6.8444	36.834	41.109	95.545	703.64	0.0095569	138.19	0.13404	0.0084826	1.1938	0.83764	17.550	19.226	85.647	33.559	57.136	220.27	1.7353	13.150	0.015173
253.79	20.090	23.374	0.042783	6.7723	6.8583	36.887	41.106	95.619	702.50	0.0097216	137.86	0.13386	0.0084513	1.1995	0.83369	17.550	19.225	85.615	33.590	57.253	220.23	1.7327	13.160	0.015197
253.94	20.179	23.359	0.042811	6.7857	6.8721	36.940	41.102	95.693	701.37	0.0098866	137.53	0.13369	0.0084201	1.2051	0.82978	17.550	19.225	85.583	33.620	57.370	220.18	1.7302	13.170	0.015220
254.08	20.269	23.343	0.042839	6.7990	6.8859	36.992	41.099	95.768	700.23	0.010052	137.20	0.13351	0.0083890	1.2108	0.82590	17.550	19.224	85.552	33.650	57.487	220.14	1.7276	13.180	0.015244
254.23	20.358	23.328	0.042867	6.8123	6.8996	37.045	41.096	95.842	699.10	0.010218	136.88	0.13333	0.0083581	1.2165	0.82206	17.550	19.223	85.521	33.680	57.604	220.10	1.7251	13.190	0.015268
254.37	20.448	23.313	0.042895	6.8256	6.9133	37.097	41.093	95.917	697.97	0.010384	136.55	0.13316	0.0083273	1.2221	0.81825	17.550	19.223	85.489	33.711	57.722	220.06	1.7226	13.200	0.015291
254.51	20.538	23.298	0.042923	6.8388	6.9270	37.149	41.089	95.993	696.84	0.010550	136.23	0.13299	0.0082966	1.2278	0.81446	17.549	19.222	85.458	33.741	57.840	220.02	1.7201	13.210	0.015315
254.66	20.627	23.282	0.042951	6.8520	6.9406	37.201	41.086	96.068	695.72	0.010717	135.91	0.13281	0.0082660	1.2335	0.81071	17.549	19.222	85.427	33.771	57.958	219.97	1.7177	13.221	0.015339
254.80	20.717	23.267	0.042979	6.8651	6.9542	37.253	41.083	96.144	694.59	0.010884	135.59	0.13264	0.0082355	1.2392	0.80699	17.549	19.221	85.396	33.801	58.077	219.93	1.7152	13.231	0.015363
254.94	20.807	23.252	0.043007	6.8783	6.9678	37.305	41.081	96.220	693.47	0.011052	135.27	0.13247	0.0082052	1.2449	0.80330	17.549	19.220	85.365	33.831	58.195	219.89	1.7127	13.241	0.015387
255.08	20.896	23.237	0.043035	6.8914	6.9813	37.357	41.078	96.296	692.35	0.011220	134.96	0.13230	0.0081750	1.2506	0.79965	17.549	19.220	85.334	33.861	58.315	219.85	1.7103	13.251	0.015410
255.22	20.986	23.222	0.043063	6.9044	6.9948	37.408	41.075	96.372	691.24	0.011388	134.64	0.13213	0.0081449	1.2563	0.79602	17.548	19.219	85.303	33.892	58.434	219.80	1.7079	13.261	0.015434
255.37	21.075	23.207	0.043091	6.9174	7.0082	37.459	41.072	96.449	690.12	0.011557	134.33	0.13196	0.0081149	1.2620	0.79242	17.548	19.218	85.272	33.922	58.554	219.76	1.7055	13.271	0.015458
255.51	21.165	23.192	0.043119	6.9304	7.0217	37.510	41.070	96.525	689.01	0.011726	134.02	0.13179	0.0080851	1.2677	0.78885	17.548	19.217	85.242	33.952	58.674	219.72	1.7030	13.281	0.015482
255.65	21.255	23.177	0.043147	6.9434	7.0351	37.561	41.067	96.602	687.90	0.011896	133.71	0.13162	0.0080553	1.2734	0.78530	17.547	19.217	85.211	33.982	58.794	219.67	1.7006	13.291	0.015506
255.78	21.344	23.162	0.043175	6.9563	7.0484	37.612	41.065	96.680	686.79	0.012065	133.41	0.13145	0.0080257	1.2791	0.78179	17.547	19.216	85.181	34.012	58.915	219.63	1.6983	13.301	0.015530
255.92	21.434	23.147	0.043203	6.9692	7.0618	37.662	41.063	96.757	685.69	0.012236	133.10	0.13128	0.0079962	1.2848	0.77830	17.547	19.215	85.151	34.042	59.036	219.59	1.6959	13.311	0.015554
256.06	21.524	23.132	0.043231	6.9820	7.0751	37.713	41.060	96.835	684.58	0.012406	132.80	0.13111	0.0079668	1.2906	0.77485	17.547	19.214	85.120	34.072	59.157	219.54	1.6935	13.321	0.015578
256.20	21.613	23.117	0.043259	6.9948	7.0883	37.763	41.058	96.913	683.48	0.012577	132.49	0.13094	0.0079375	1.2963	0.77141	17.546	19.213	85.090	34.102	59.279	219.50	1.6912	13.331	0.015602
256.34	21.703	23.102	0.043287	7.0076	7.1016	37.813	41.056	96.991	682.38	0.012749	132.19	0.13078	0.0079083	1.3021	0.76801	17.546	19.213	85.060	34.132	59.401	219.45	1.6888	13.341	0.015626
256.48	21.792	23.087	0.043314	7.0204	7.1148	37.863	41.054	97.069	681.28	0.012920	131.89	0.13061	0.0078792	1.3078	0.76463	17.546	19.212	85.030	34.162	59.523	219.41	1.6865	13.351	0.015650
256.61	21.882	23.072	0.043342	7.0331	7.1280	37.913	41.052	97.148	680.19	0.013093	131.59	0.13045	0.0078503	1.3136	0.76128	17.545	19.211	85.000	34.192	59.645	219.37	1.6842	13.360	0.015674
256.75	21.972	23.057	0.043370	7.0458	7.1411	37.963	41.050	97.227	679.09	0.013265	131.30	0.13028	0.0078215	1.3193	0.75796	17.545	19.210	84.970	34.222	59.768	219.32	1.6819	13.370	0.015699
256.88	22.061	23.042	0.043398	7.0585	7.1542	38.012	41.048	97.306	678.00	0.013438	131.00	0.13012	0.0077927	1.3251	0.75466	17.544	19.209	84.940	34.252	59.891	219.28	1.6795	13.380	0.015723
257.02	22.151	23.028	0.043426	7.0711	7.1673	38.062	41.047	97.386	676.91	0.013611	130.71	0.12995	0.0077641	1.3309	0.75138	17.544	19.208	84.911	34.281	60.015	219.23	1.6773	13.390	0.015747
257.16	22.241	23.013	0.043454	7.0837	7.1804	38.111	41.045	97.465	675.82	0.013785	130.42	0.12979	0.0077356	1.3367	0.74813	17.544	19.207	84.881	34.311	60.139	219.19	1.6750	13.400	0.015771
257.29	22.330	22.998	0.043482	7.0963	7.1934	38.160	41.043	97.545	674.73	0.013959	130.13	0.12963	0.0077072	1.3424	0.74491	17.543	19.207	84.851	34.341	60.263	219.14	1.6727	13.410	0.015795
257.42	22.420	22.983	0.043510	7.1088	7.2064	38.209	41.042	97.625	673.65	0.014134	129.84	0.12946	0.0076789	1.3482	0.74171	17.543	19.206	84.822	34.371	60.387	219.10	1.6704	13.420	0.015820
257.56	22.509	22.969	0.043537	7.1214	7.2194	38.258	41.040	97.705	672.56	0.014309	129.55	0.12930	0.0076507	1.3540	0.73854	17.542	19.205	84.793	34.401	60.512	219.05	1.6682	13.430	0.015844
257.69	22.599	22.954	0.043565	7.1338	7.2323	38.307	41.039	97.786	671.48	0.014484	129.26	0.12914	0.0076226	1.3598	0.73538	17.542	19.204	84.763	34.430	60.637	219.01	1.6659	13.440	0.015868
257.83	22.689	22.939	0.043593	7.1463	7.2452	38.355	41.038	97.867	670.40	0.014660	128.98	0.12898	0.0075946	1.3656	0.73226	17.541	19.203	84.734	34.460	60.762	218.96	1.6637	13.449	0.015893
257.96	22.778	22.925	0.043621	7.1587	7.2581	38.404	41.037	97.948	669.32	0.014836	128.69	0.12882	0.0075667	1.3715	0.72915	17.541	19.202	84.705	34.490	60.888	218.92	1.6615	13.459	0.015917
258.09	22.868	22.910	0.043649	7.1711	7.2709	38.452	41.036	98.029	668.25	0.015013	128.41	0.12866	0.0075389	1.3773	0.72607	17.540	19.201	84.676	34.520	61.014	218.87	1.6593	13.469	0.015942
258.22	22.958	22.895	0.043677	7.1835	7.2838	38.500	41.035	98.111	667.17	0.015190	128.13	0.12850	0.0075112	1.3831	0.72301	17.540	19.200	84.647	34.549	61.141	218.82	1.6571	13.479	0.015966
258.35	23.047	22.881	0.043705	7.1958	7.2966	38.548	41.034	98.193	666.10	0.015367	127.85	0.12834	0.0074836	1.3889	0.71998	17.539	19.199	84.618	34.579	61.268	218.78	1.6549	13.489	0.015991
258.49	23.137	22.866	0.043732	7.2081	7.3093	38.596	41.033	98.275	665.03	0.015545	127.57	0.12818	0.0074562	1.3948	0.71696	17.539	19.198	84.589	34.609	61.395	218.73	1.6527	13.499	0.016015
258.62	23.226	22.852	0.043760	7.2204	7.3221	38.644	41.032	98.357	663.96	0.015723	127.30	0.12802	0.0074288	1.4006	0.71397	17.538	19.197	84.560	34.638	61.522	218.69	1.6505	13.509	0.016040
258.75	23.316	22.837	0.043788	7.2327	7.3348	38.692	41.031	98.440	662.89	0.015902	127.02	0.12786	0.0074015	1.4065	0.71100	17.538	19.196	84.531	34.668	61.650	218.64	1.6483	13.518	0.016065
258.88	23.406	22.823	0.043816	7.2449	7.3475	38.739	41.031	98.523	661.83	0.016081	126.74	0.12771	0.0073743	1.4123	0.70805	17.537	19.195	84.502	34.698	61.778	218.59	1.6462	13.528	0.016089
259.01	23.495	22.808	0.043844	7.2571	7.3601	38.786	41.030	98.606	660.76	0.016261	126.47	0.12755	0.0073472	1.4182	0.70513	17.537	19.193	84.474	34.727	61.907	218.55	1.6440	13.538	0.016114
259.14	23.585	22.794	0.043872	7.2693	7.3728	38.834	41.030	98.689	659.70	0.016441	126.20	0.12739	0.0073202	1.4241	0.70222	17.536	19.192	84.445	34.757	62.035	218.50	1.6419	13.548	0.016139
259.27	23.674	22.779	0.043899	7.2814	7.3854	38.881	41.029	98.773	658.64	0.016621	125.93	0.12724	0.0072933	1.4299	0.69934	17.536	19.191	84.417	34.786	62.165	218.45	1.6397	13.558	0.016163
259.40	23.764	22.765	0.043927	7.2936	7.3980	38.928	41.029	98.857	657.58	0.016802	125.66	0.12708	0.0072665	1.4358	0.69647	17.535	19.190	84.388	34.816	62.294	218.41	1.6376	13.567	0.016188
259.52	23.854	22.751	0.043955	7.3057	7.4105	38.975	41.029	98.941	656.52	0.016983	125.39	0.12692	0.0072398	1.4417	0.69363	17.534	19.189	84.360	34.845	62.424	218.36	1.6355	13.577	0.016213
259.65	23.943	22.736	0.043983	7.3177	7.4230	39.021	41.029	99.026	655.46	0.017165	125.12	0.12677	0.0072132	1.4476	0.69081	17.534	19.188	84.331	34.875	62.554	218.31	1.6334	13.587	0.016238
259.78	24.033	22.722	0.044011	7.3298	7.4355	39.068	41.029	99.110	654.40	0.017347	124.86	0.12662	0.0071867	1.4535	0.68800	17.533	19.187	84.303	34.904	62.685	218.27	1.6313	13.597	0.016263
259.91	24.123	22.707	0.044039	7.3418	7.4480	39.115	41.029	99.196	653.35	0.017529	124.59	0.12646	0.0071603	1.4594	0.68522	17.533	19.186	84.275	34.934	62.816	218.22	1.6292	13.606	0.016288
260.03	24.212	22.693	0.044066	7.3538	7.4605	39.161	41.029	99.281	652.30	0.017712	124.33	0.12631	0.0071340	1.4653	0.68245	17.532	19.184	84.247	34.963	62.948	218.17	1.6271	13.616	0.016313
260.16	24.302	22.679	0.044094	7.3657	7.4729	39.207	41.029	99.366	651.25	0.017896	124.07	0.12615	0.0071077	1.4712	0.67971	17.531	19.183	84.219	34.993	63.079	218.13	1.6250	13.626	0.016338
260.29	24.391	22.664	0.044122	7.3777	7.4853	39.253	41.030	99.452	650.20	0.018080	123.81	0.12600	0.0070816	1.4771	0.67698	17.531	19.182	84.191	35.022	63.211	218.08	1.6230	13.636	0.016363
260.41	24.481	22.650	0.044150	7.3896	7.4977	39.299	41.030	99.538	649.15	0.018264	123.55	0.12585	0.0070556	1.4831	0.67428	17.530	19.181	84.163	35.052	63.344	218.03	1.6209	13.646	0.016388
260.54	24.571	22.636	0.044178	7.4015	7.5100	39.345	41.031	99.625	648.10	0.018449	123.29	0.12570	0.0070296	1.4890	0.67159	17.529	19.179	84.135	35.081	63.477	217.98	1.6189	13.655	0.016413
260.66	24.660	22.622	0.044206	7.4134	7.5224	39.391	41.031	99.711	647.06	0.018634	123.03	0.12555	0.0070037	1.4949	0.66892	17.529	19.178	84.107	35.110	63.610	217.94	1.6168	13.665	0.016438
260.79	24.750	22.607	0.044233	7.4252	7.5347	39.437	41.032	99.798	646.01	0.018820	122.78	0.12540	0.0069779	1.5009	0.66627	17.528	19.177	84.079	35.140	63.744	217.89	1.6148	13.675	0.016463
260.91	24.840	22.593	0.044261	7.4370	7.5470	39.482	41.033	99.885	644.97	0.019006	122.52	0.12524	0.0069522	1.5069	0.66363	17.527	19.176	84.052	35.169	63.878	217.84	1.6128	13.684	0.016489
261.04	24.929	22.579	0.044289	7.4488	7.5592	39.528	41.033	99.973	643.93	0.019193	122.27	0.12509	0.0069266	1.5128	0.66102	17.527	19.174	84.024	35.198	64.012	217.79	1.6107	13.694	0.016514
261.16	25.019	22.565	0.044317	7.4606	7.5715	39.573	41.034	100.06	642.89	0.019380	122.01	0.12494	0.0069011	1.5188	0.65842	17.526	19.173	83.996	35.228	64.147	217.74	1.6087	13.704	0.016539
261.29	25.108	22.550	0.044345	7.4723	7.5837	39.618	41.035	100.15	641.85	0.019567	121.76	0.12479	0.0068757	1.5248	0.65584	17.525	19.172	83.969	35.257	64.282	217.70	1.6067	13.714	0.016565
261.41	25.198	22.536	0.044373	7.4840	7.5959	39.664	41.036	100.24	640.82	0.019755	121.51	0.12465	0.0068504	1.5307	0.65328	17.524	19.170	83.941	35.286	64.418	217.65	1.6047	13.723	0.016590
261.53	25.288	22.522	0.044401	7.4957	7.6080	39.709	41.038	100.33	639.78	0.019944	121.26	0.12450	0.0068251	1.5367	0.65073	17.524	19.169	83.914	35.315	64.554	217.60	1.6027	13.733	0.016615
261.66	25.377	22.508	0.044429	7.5074	7.6202	39.753	41.039	100.41	638.75	0.020132	121.01	0.12435	0.0067999	1.5427	0.64821	17.523	19.168	83.886	35.345	64.690	217.55	1.6007	13.743	0.016641
261.78	25.467	22.494	0.044456	7.5191	7.6323	39.798	41.040	100.50	637.71	0.020322	120.77	0.12420	0.0067749	1.5487	0.64569	17.522	19.166	83.859	35.374	64.827	217.50	1.5988	13.753	0.016667
261.90	25.557	22.480	0.044484	7.5307	7.6444	39.843	41.042	100.59	636.68	0.020512	120.52	0.12405	0.0067499	1.5547	0.64320	17.521	19.165	83.832	35.403	64.964	217.45	1.5968	13.762	0.016692
262.02	25.646	22.466	0.044512	7.5423	7.6564	39.887	41.043	100.68	635.65	0.020702	120.27	0.12391	0.0067249	1.5607	0.64072	17.521	19.164	83.805	35.432	65.102	217.40	1.5948	13.772	0.016718
262.14	25.736	22.452	0.044540	7.5539	7.6685	39.932	41.045	100.77	634.62	0.020893	120.03	0.12376	0.0067001	1.5668	0.63826	17.520	19.162	83.777	35.461	65.240	217.36	1.5929	13.782	0.016743
262.26	25.825	22.438	0.044568	7.5654	7.6805	39.976	41.046	100.86	633.60	0.021084	119.79	0.12361	0.0066754	1.5728	0.63581	17.519	19.161	83.750	35.490	65.378	217.31	1.5909	13.792	0.016769
262.39	25.915	22.424	0.044596	7.5770	7.6925	40.021	41.048	100.95	632.57	0.021276	119.54	0.12347	0.0066507	1.5788	0.63338	17.518	19.160	83.723	35.520	65.517	217.26	1.5890	13.801	0.016795
262.51	26.005	22.410	0.044624	7.5885	7.7045	40.065	41.050	101.05	631.55	0.021468	119.30	0.12332	0.0066261	1.5849	0.63097	17.517	19.158	83.696	35.549	65.656	217.21	1.5871	13.811	0.016821
262.63	26.094	22.396	0.044652	7.6000	7.7165	40.109	41.052	101.14	630.52	0.021661	119.06	0.12318	0.0066016	1.5909	0.62857	17.516	19.157	83.669	35.578	65.796	217.16	1.5851	13.821	0.016847
262.75	26.184	22.382	0.044680	7.6114	7.7284	40.153	41.054	101.23	629.50	0.021854	118.82	0.12303	0.0065772	1.5970	0.62619	17.516	19.155	83.642	35.607	65.936	217.11	1.5832	13.830	0.016873
262.87	26.274	22.368	0.044708	7.6229	7.7404	40.196	41.056	101.32	628.48	0.022048	118.58	0.12289	0.0065528	1.6030	0.62382	17.515	19.154	83.615	35.636	66.077	217.06	1.5813	13.840	0.016899
262.99	26.363	22.354	0.044736	7.6343	7.7523	40.240	41.058	101.41	627.46	0.022242	118.35	0.12274	0.0065286	1.6091	0.62147	17.514	19.152	83.589	35.665	66.218	217.01	1.5794	13.850	0.016925
263.10	26.453	22.340	0.044764	7.6457	7.7641	40.284	41.060	101.51	626.44	0.022437	118.11	0.12260	0.0065044	1.6152	0.61913	17.513	19.151	83.562	35.694	66.359	216.96	1.5775	13.860	0.016951
263.22	26.542	22.326	0.044792	7.6571	7.7760	40.327	41.063	101.60	625.42	0.022632	117.87	0.12245	0.0064803	1.6213	0.61681	17.512	19.149	83.535	35.723	66.501	216.91	1.5756	13.869	0.016977
263.34	26.632	22.312	0.044819	7.6685	7.7878	40.371	41.065	101.69	624.41	0.022827	117.64	0.12231	0.0064563	1.6273	0.61450	17.511	19.148	83.508	35.752	66.643	216.86	1.5737	13.879	0.017003
263.46	26.722	22.298	0.044847	7.6798	7.7996	40.414	41.068	101.79	623.39	0.023024	117.41	0.12217	0.0064323	1.6334	0.61221	17.510	19.146	83.482	35.781	66.786	216.81	1.5719	13.889	0.017029
263.58	26.811	22.284	0.044875	7.6911	7.8114	40.457	41.070	101.88	622.38	0.023220	117.17	0.12203	0.0064085	1.6395	0.60993	17.509	19.145	83.455	35.810	66.929	216.76	1.5700	13.898	0.017055
263.70	26.901	22.270	0.044903	7.7024	7.8232	40.501	41.073	101.97	621.37	0.023418	116.94	0.12188	0.0063847	1.6456	0.60766	17.509	19.143	83.429	35.839	67.073	216.72	1.5681	13.908	0.017082
263.81	26.990	22.256	0.044931	7.7137	7.8350	40.544	41.076	102.07	620.36	0.023615	116.71	0.12174	0.0063610	1.6518	0.60541	17.508	19.142	83.402	35.868	67.217	216.67	1.5663	13.918	0.017108
263.93	27.080	22.242	0.044960	7.7250	7.8467	40.587	41.079	102.16	619.35	0.023813	116.48	0.12160	0.0063374	1.6579	0.60318	17.507	19.140	83.376	35.897	67.362	216.62	1.5644	13.928	0.017134
264.05	27.170	22.228	0.044988	7.7362	7.8584	40.629	41.081	102.26	618.34	0.024012	116.25	0.12146	0.0063138	1.6640	0.60096	17.506	19.139	83.349	35.926	67.507	216.57	1.5626	13.937	0.017161
264.16	27.259	22.215	0.045016	7.7474	7.8701	40.672	41.085	102.35	617.33	0.024211	116.02	0.12132	0.0062903	1.6702	0.59875	17.505	19.137	83.323	35.955	67.652	216.52	1.5607	13.947	0.017187
264.28	27.349	22.201	0.045044	7.7586	7.8818	40.715	41.088	102.45	616.33	0.024411	115.80	0.12118	0.0062669	1.6763	0.59655	17.504	19.135	83.297	35.983	67.798	216.47	1.5589	13.957	0.017214
264.40	27.439	22.187	0.045072	7.7698	7.8935	40.757	41.091	102.55	615.32	0.024611	115.57	0.12104	0.0062436	1.6824	0.59437	17.503	19.134	83.270	36.012	67.944	216.41	1.5571	13.966	0.017240
264.51	27.528	22.173	0.045100	7.7810	7.9051	40.800	41.094	102.64	614.32	0.024812	115.35	0.12090	0.0062203	1.6886	0.59220	17.502	19.132	83.244	36.041	68.091	216.36	1.5552	13.976	0.017267
264.63	27.618	22.159	0.045128	7.7921	7.9167	40.842	41.097	102.74	613.32	0.025014	115.12	0.12076	0.0061972	1.6948	0.59005	17.501	19.130	83.218	36.070	68.239	216.31	1.5534	13.986	0.017294
264.74	27.707	22.145	0.045156	7.8032	7.9283	40.885	41.101	102.84	612.32	0.025215	114.90	0.12062	0.0061740	1.7009	0.58791	17.500	19.129	83.192	36.099	68.387	216.26	1.5516	13.996	0.017321
264.86	27.797	22.132	0.045184	7.8143	7.9399	40.927	41.104	102.93	611.32	0.025418	114.67	0.12048	0.0061510	1.7071	0.58578	17.499	19.127	83.166	36.128	68.535	216.21	1.5498	14.005	0.017347
264.97	27.887	22.118	0.045212	7.8254	7.9515	40.969	41.108	103.03	610.32	0.025621	114.45	0.12034	0.0061281	1.7133	0.58367	17.498	19.126	83.140	36.156	68.684	216.16	1.5480	14.015	0.017374
265.09	27.976	22.104	0.045240	7.8364	7.9630	41.011	41.111	103.13	609.32	0.025824	114.23	0.12020	0.0061052	1.7195	0.58156	17.497	19.124	83.114	36.185	68.833	216.11	1.5462	14.025	0.017401
265.20	28.066	22.090	0.045268	7.8475	7.9745	41.053	41.115	103.23	608.33	0.026028	114.01	0.12007	0.0060824	1.7257	0.57947	17.496	19.122	83.088	36.214	68.983	216.06	1.5444	14.034	0.017428
265.31	28.156	22.077	0.045297	7.8585	7.9860	41.095	41.119	103.33	607.33	0.026233	113.79	0.11993	0.0060596	1.7319	0.57739	17.495	19.120	83.062	36.243	69.133	216.01	1.5426	14.044	0.017455
265.43	28.245	22.063	0.045325	7.8695	7.9975	41.137	41.123	103.43	606.34	0.026438	113.57	0.11979	0.0060369	1.7381	0.57533	17.494	19.119	83.036	36.272	69.284	215.96	1.5409	14.054	0.017482
265.54	28.335	22.049	0.045353	7.8805	8.0090	41.178	41.127	103.53	605.35	0.026643	113.36	0.11965	0.0060143	1.7444	0.57328	17.493	19.117	83.010	36.300	69.435	215.91	1.5391	14.064	0.017510
265.65	28.424	22.036	0.045381	7.8915	8.0205	41.220	41.131	103.63	604.36	0.026849	113.14	0.11952	0.0059918	1.7506	0.57124	17.492	19.115	82.984	36.329	69.587	215.86	1.5373	14.073	0.017537
265.77	28.514	22.022	0.045409	7.9024	8.0319	41.261	41.135	103.73	603.37	0.027056	112.92	0.11938	0.0059694	1.7568	0.56921	17.491	19.114	82.958	36.358	69.739	215.81	1.5356	14.083	0.017564
265.88	28.604	22.008	0.045438	7.9133	8.0433	41.303	41.139	103.83	602.38	0.027263	112.71	0.11925	0.0059470	1.7631	0.56719	17.489	19.112	82.933	36.387	69.892	215.76	1.5338	14.093	0.017591
265.99	28.693	21.995	0.045466	7.9243	8.0547	41.344	41.143	103.93	601.39	0.027471	112.49	0.11911	0.0059246	1.7693	0.56519	17.488	19.110	82.907	36.415	70.045	215.70	1.5321	14.103	0.017619
266.10	28.783	21.981	0.045494	7.9351	8.0661	41.385	41.148	104.03	600.41	0.027680	112.28	0.11897	0.0059024	1.7756	0.56319	17.487	19.108	82.881	36.444	70.199	215.65	1.5303	14.112	0.017646
266.21	28.873	21.967	0.045522	7.9460	8.0775	41.426	41.152	104.13	599.42	0.027889	112.07	0.11884	0.0058802	1.7819	0.56121	17.486	19.106	82.856	36.473	70.354	215.60	1.5286	14.122	0.017674
266.33	28.962	21.954	0.045551	7.9569	8.0888	41.468	41.157	104.23	598.44	0.028098	111.85	0.11870	0.0058581	1.7881	0.55924	17.485	19.105	82.830	36.501	70.509	215.55	1.5269	14.132	0.017701
266.44	29.052	21.940	0.045579	7.9677	8.1001	41.509	41.161	104.34	597.46	0.028308	111.64	0.11857	0.0058361	1.7944	0.55728	17.484	19.103	82.804	36.530	70.664	215.50	1.5251	14.142	0.017729
266.55	29.141	21.926	0.045607	7.9785	8.1114	41.549	41.166	104.44	596.48	0.028519	111.43	0.11844	0.0058141	1.8007	0.55534	17.483	19.101	82.779	36.559	70.820	215.45	1.5234	14.151	0.017757
266.66	29.231	21.913	0.045636	7.9893	8.1227	41.590	41.170	104.54	595.50	0.028730	111.22	0.11830	0.0057922	1.8070	0.55340	17.482	19.099	82.753	36.587	70.976	215.40	1.5217	14.161	0.017785
266.77	29.321	21.899	0.045664	8.0001	8.1340	41.631	41.175	104.65	594.52	0.028942	111.01	0.11817	0.0057703	1.8133	0.55147	17.480	19.097	82.728	36.616	71.134	215.34	1.5200	14.171	0.017812
266.88	29.410	21.886	0.045692	8.0109	8.1453	41.672	41.180	104.75	593.54	0.029154	110.81	0.11804	0.0057486	1.8196	0.54956	17.479	19.096	82.703	36.645	71.291	215.29	1.5183	14.181	0.017840
266.99	29.500	21.872	0.045721	8.0217	8.1565	41.712	41.185	104.85	592.56	0.029367	110.60	0.11790	0.0057269	1.8260	0.54766	17.478	19.094	82.677	36.673	71.449	215.24	1.5166	14.190	0.017868
267.10	29.590	21.858	0.045749	8.0324	8.1678	41.753	41.190	104.96	591.59	0.029580	110.39	0.11777	0.0057052	1.8323	0.54577	17.477	19.092	82.652	36.702	71.608	215.19	1.5149	14.200	0.017896
267.21	29.679	21.845	0.045777	8.0431	8.1790	41.793	41.195	105.06	590.61	0.029795	110.19	0.11764	0.0056836	1.8386	0.54388	17.476	19.090	82.627	36.731	71.767	215.14	1.5132	14.210	0.017924
267.32	29.769	21.831	0.045806	8.0538	8.1902	41.834	41.200	105.17	589.64	0.030009	109.98	0.11750	0.0056621	1.8450	0.54201	17.475	19.088	82.601	36.759	71.927	215.08	1.5115	14.220	0.017952
267.43	29.858	21.818	0.045834	8.0645	8.2014	41.874	41.205	105.28	588.67	0.030225	109.78	0.11737	0.0056407	1.8513	0.54015	17.473	19.086	82.576	36.788	72.088	215.03	1.5098	14.230	0.017981
267.53	29.948	21.804	0.045863	8.0752	8.2125	41.914	41.211	105.38	587.70	0.030440	109.57	0.11724	0.0056193	1.8577	0.53830	17.472	19.084	82.551	36.817	72.249	214.98	1.5081	14.239	0.018009
267.64	30.038	21.791	0.045891	8.0858	8.2237	41.954	41.216	105.49	586.73	0.030657	109.37	0.11711	0.0055980	1.8641	0.53646	17.471	19.082	82.526	36.845	72.410	214.93	1.5065	14.249	0.018037
267.75	30.127	21.777	0.045920	8.0965	8.2348	41.994	41.221	105.60	585.76	0.030874	109.17	0.11698	0.0055767	1.8704	0.53463	17.470	19.080	82.500	36.874	72.572	214.88	1.5048	14.259	0.018066
267.86	30.217	21.764	0.045948	8.1071	8.2459	42.034	41.227	105.70	584.80	0.031092	108.97	0.11685	0.0055556	1.8768	0.53282	17.468	19.078	82.475	36.903	72.735	214.82	1.5031	14.269	0.018094
267.97	30.306	21.750	0.045977	8.1177	8.2570	42.074	41.232	105.81	583.83	0.031310	108.76	0.11672	0.0055344	1.8832	0.53101	17.467	19.076	82.450	36.931	72.899	214.77	1.5015	14.279	0.018123
268.07	30.396	21.737	0.046005	8.1283	8.2681	42.114	41.238	105.92	582.87	0.031529	108.56	0.11659	0.0055134	1.8896	0.52921	17.466	19.075	82.425	36.960	73.062	214.72	1.4998	14.288	0.018151
268.18	30.486	21.723	0.046034	8.1388	8.2792	42.154	41.244	106.03	581.90	0.031748	108.36	0.11646	0.0054924	1.8960	0.52742	17.465	19.073	82.400	36.988	73.227	214.67	1.4982	14.298	0.018180
268.29	30.575	21.710	0.046062	8.1494	8.2902	42.193	41.249	106.14	580.94	0.031968	108.17	0.11633	0.0054714	1.9024	0.52564	17.463	19.071	82.375	37.017	73.392	214.61	1.4965	14.308	0.018209
268.40	30.665	21.696	0.046091	8.1599	8.3013	42.233	41.255	106.25	579.98	0.032189	107.97	0.11620	0.0054506	1.9089	0.52387	17.462	19.069	82.350	37.046	73.558	214.56	1.4949	14.318	0.018238
268.50	30.755	21.683	0.046120	8.1705	8.3123	42.273	41.261	106.36	579.02	0.032410	107.77	0.11607	0.0054298	1.9153	0.52211	17.461	19.067	82.325	37.074	73.724	214.51	1.4933	14.328	0.018266
268.61	30.844	21.669	0.046148	8.1810	8.3233	42.312	41.267	106.47	578.06	0.032632	107.57	0.11594	0.0054090	1.9218	0.52036	17.460	19.065	82.300	37.103	73.891	214.46	1.4916	14.338	0.018295
268.72	30.934	21.656	0.046177	8.1915	8.3343	42.351	41.273	106.58	577.11	0.032855	107.38	0.11581	0.0053883	1.9282	0.51862	17.458	19.062	82.275	37.131	74.059	214.40	1.4900	14.348	0.018324
268.82	31.023	21.642	0.046206	8.2020	8.3453	42.391	41.279	106.69	576.15	0.033078	107.18	0.11568	0.0053677	1.9347	0.51689	17.457	19.060	82.251	37.160	74.227	214.35	1.4884	14.357	0.018354
268.93	31.113	21.629	0.046234	8.2124	8.3563	42.430	41.285	106.80	575.20	0.033302	106.99	0.11556	0.0053471	1.9411	0.51516	17.456	19.058	82.226	37.189	74.396	214.30	1.4868	14.367	0.018383
269.03	31.203	21.615	0.046263	8.2229	8.3672	42.469	41.291	106.91	574.24	0.033527	106.79	0.11543	0.0053266	1.9476	0.51345	17.454	19.056	82.201	37.217	74.565	214.25	1.4852	14.377	0.018412
269.14	31.292	21.602	0.046292	8.2333	8.3782	42.508	41.297	107.03	573.29	0.033752	106.60	0.11530	0.0053062	1.9541	0.51175	17.453	19.054	82.176	37.246	74.736	214.19	1.4836	14.387	0.018441
269.24	31.382	21.589	0.046321	8.2437	8.3891	42.547	41.304	107.14	572.34	0.033978	106.41	0.11517	0.0052858	1.9606	0.51005	17.452	19.052	82.151	37.274	74.906	214.14	1.4819	14.397	0.018471
269.35	31.472	21.575	0.046349	8.2541	8.4000	42.586	41.310	107.25	571.39	0.034204	106.21	0.11505	0.0052655	1.9671	0.50837	17.450	19.050	82.127	37.303	75.078	214.09	1.4803	14.407	0.018500
269.45	31.561	21.562	0.046378	8.2645	8.4109	42.625	41.316	107.37	570.44	0.034431	106.02	0.11492	0.0052452	1.9736	0.50669	17.449	19.048	82.102	37.332	75.250	214.03	1.4788	14.417	0.018530
269.56	31.651	21.548	0.046407	8.2749	8.4218	42.664	41.323	107.48	569.49	0.034659	105.83	0.11479	0.0052250	1.9801	0.50502	17.447	19.046	82.077	37.360	75.423	213.98	1.4772	14.427	0.018559
269.66	31.740	21.535	0.046436	8.2852	8.4326	42.703	41.329	107.60	568.55	0.034887	105.64	0.11467	0.0052049	1.9866	0.50336	17.446	19.044	82.053	37.389	75.596	213.93	1.4756	14.437	0.018589
269.76	31.830	21.522	0.046465	8.2956	8.4435	42.742	41.336	107.71	567.60	0.035116	105.45	0.11454	0.0051848	1.9932	0.50171	17.445	19.042	82.028	37.417	75.770	213.87	1.4740	14.447	0.018619
269.87	31.920	21.508	0.046494	8.3059	8.4543	42.780	41.343	107.83	566.66	0.035346	105.26	0.11441	0.0051648	1.9997	0.50007	17.443	19.039	82.003	37.446	75.945	213.82	1.4724	14.456	0.018649
269.97	32.009	21.495	0.046523	8.3162	8.4652	42.819	41.349	107.94	565.71	0.035576	105.07	0.11429	0.0051448	2.0063	0.49844	17.442	19.037	81.979	37.475	76.120	213.77	1.4708	14.466	0.018679
270.08	32.099	21.482	0.046552	8.3265	8.4760	42.857	41.356	108.06	564.77	0.035808	104.89	0.11416	0.0051249	2.0128	0.49681	17.440	19.035	81.954	37.503	76.296	213.71	1.4693	14.476	0.018709
270.18	32.189	21.468	0.046581	8.3368	8.4868	42.896	41.363	108.18	563.83	0.036039	104.70	0.11404	0.0051050	2.0194	0.49520	17.439	19.033	81.930	37.532	76.473	213.66	1.4677	14.486	0.018739
270.28	32.278	21.455	0.046610	8.3471	8.4976	42.934	41.370	108.30	562.89	0.036272	104.51	0.11391	0.0050852	2.0260	0.49359	17.438	19.031	81.905	37.560	76.651	213.61	1.4661	14.496	0.018769
270.38	32.368	21.441	0.046639	8.3574	8.5083	42.972	41.377	108.41	561.96	0.036505	104.33	0.11379	0.0050655	2.0326	0.49199	17.436	19.029	81.881	37.589	76.829	213.55	1.4646	14.506	0.018799
270.49	32.457	21.428	0.046668	8.3676	8.5191	43.011	41.384	108.53	561.02	0.036739	104.14	0.11366	0.0050458	2.0392	0.49040	17.435	19.026	81.856	37.618	77.008	213.50	1.4630	14.516	0.018829
270.59	32.547	21.415	0.046697	8.3779	8.5298	43.049	41.391	108.65	560.08	0.036973	103.96	0.11354	0.0050262	2.0458	0.48881	17.433	19.024	81.832	37.646	77.187	213.44	1.4615	14.526	0.018860
270.69	32.637	21.401	0.046726	8.3881	8.5406	43.087	41.398	108.77	559.15	0.037208	103.77	0.11342	0.0050066	2.0524	0.48724	17.432	19.022	81.808	37.675	77.368	213.39	1.4599	14.536	0.018890
270.79	32.726	21.388	0.046755	8.3983	8.5513	43.125	41.405	108.89	558.22	0.037444	103.59	0.11329	0.0049871	2.0590	0.48567	17.430	19.020	81.783	37.704	77.549	213.34	1.4584	14.546	0.018921
270.89	32.816	21.375	0.046784	8.4085	8.5620	43.163	41.412	109.01	557.29	0.037681	103.40	0.11317	0.0049676	2.0656	0.48411	17.429	19.017	81.759	37.732	77.731	213.28	1.4568	14.556	0.018952
271.00	32.906	21.361	0.046813	8.4187	8.5727	43.201	41.419	109.13	556.35	0.037918	103.22	0.11305	0.0049482	2.0723	0.48256	17.427	19.015	81.735	37.761	77.913	213.23	1.4553	14.566	0.018982
271.10	32.995	21.348	0.046842	8.4288	8.5834	43.239	41.426	109.25	555.43	0.038156	103.04	0.11292	0.0049289	2.0789	0.48102	17.426	19.013	81.710	37.790	78.096	213.17	1.4537	14.576	0.019013
271.20	33.085	21.335	0.046872	8.4390	8.5941	43.277	41.434	109.38	554.50	0.038394	102.86	0.11280	0.0049096	2.0856	0.47948	17.424	19.011	81.686	37.818	78.280	213.12	1.4522	14.586	0.019044
271.30	33.174	21.322	0.046901	8.4491	8.6047	43.314	41.441	109.50	553.57	0.038634	102.68	0.11268	0.0048904	2.0923	0.47795	17.423	19.008	81.662	37.847	78.465	213.07	1.4507	14.596	0.019075
271.40	33.264	21.308	0.046930	8.4592	8.6154	43.352	41.448	109.62	552.64	0.038874	102.50	0.11256	0.0048712	2.0989	0.47643	17.421	19.006	81.637	37.876	78.651	213.01	1.4492	14.606	0.019106
271.50	33.354	21.295	0.046960	8.4694	8.6260	43.390	41.456	109.74	551.72	0.039115	102.32	0.11243	0.0048521	2.1056	0.47492	17.420	19.004	81.613	37.904	78.837	212.96	1.4476	14.616	0.019137
271.60	33.443	21.282	0.046989	8.4795	8.6366	43.427	41.463	109.87	550.80	0.039356	102.14	0.11231	0.0048330	2.1123	0.47341	17.418	19.001	81.589	37.933	79.024	212.90	1.4461	14.627	0.019168
271.70	33.533	21.268	0.047018	8.4896	8.6472	43.465	41.471	109.99	549.87	0.039598	101.96	0.11219	0.0048140	2.1190	0.47191	17.417	18.999	81.565	37.962	79.212	212.85	1.4446	14.637	0.019200
271.80	33.622	21.255	0.047048	8.4996	8.6578	43.502	41.478	110.12	548.95	0.039841	101.78	0.11207	0.0047950	2.1257	0.47042	17.415	18.997	81.541	37.990	79.400	212.79	1.4431	14.647	0.019231
271.90	33.712	21.242	0.047077	8.5097	8.6684	43.539	41.486	110.24	548.03	0.040085	101.61	0.11195	0.0047761	2.1325	0.46894	17.413	18.994	81.517	38.019	79.590	212.74	1.4416	14.657	0.019263
272.00	33.802	21.229	0.047106	8.5197	8.6790	43.577	41.494	110.37	547.11	0.040330	101.43	0.11183	0.0047572	2.1392	0.46747	17.412	18.992	81.492	38.048	79.780	212.68	1.4401	14.667	0.019294
272.10	33.891	21.215	0.047136	8.5298	8.6895	43.614	41.501	110.50	546.20	0.040575	101.25	0.11171	0.0047384	2.1459	0.46600	17.410	18.990	81.468	38.077	79.971	212.63	1.4386	14.677	0.019326
272.20	33.981	21.202	0.047165	8.5398	8.7001	43.651	41.509	110.62	545.28	0.040821	101.08	0.11158	0.0047197	2.1527	0.46453	17.409	18.987	81.444	38.105	80.162	212.58	1.4371	14.687	0.019358
272.30	34.071	21.189	0.047195	8.5498	8.7106	43.688	41.517	110.75	544.37	0.041067	100.90	0.11146	0.0047010	2.1595	0.46308	17.407	18.985	81.420	38.134	80.355	212.52	1.4356	14.697	0.019390
272.40	34.160	21.175	0.047224	8.5598	8.7212	43.726	41.525	110.88	543.45	0.041315	100.73	0.11134	0.0046823	2.1662	0.46163	17.405	18.982	81.396	38.163	80.548	212.47	1.4341	14.708	0.019422
272.49	34.250	21.162	0.047254	8.5698	8.7317	43.763	41.532	111.01	542.54	0.041563	100.55	0.11122	0.0046637	2.1730	0.46019	17.404	18.980	81.372	38.192	80.742	212.41	1.4326	14.718	0.019454
272.59	34.339	21.149	0.047284	8.5798	8.7422	43.800	41.540	111.14	541.63	0.041812	100.38	0.11111	0.0046452	2.1798	0.45876	17.402	18.978	81.348	38.221	80.937	212.36	1.4311	14.728	0.019486
272.69	34.429	21.136	0.047313	8.5898	8.7527	43.837	41.548	111.27	540.72	0.042062	100.20	0.11099	0.0046267	2.1866	0.45733	17.401	18.975	81.324	38.249	81.133	212.30	1.4296	14.738	0.019518
272.79	34.519	21.122	0.047343	8.5997	8.7631	43.873	41.556	111.40	539.81	0.042312	100.03	0.11087	0.0046083	2.1934	0.45591	17.399	18.973	81.300	38.278	81.330	212.25	1.4282	14.748	0.019550
272.89	34.608	21.109	0.047373	8.6097	8.7736	43.910	41.564	111.53	538.90	0.042564	99.859	0.11075	0.0045899	2.2002	0.45450	17.397	18.970	81.276	38.307	81.527	212.19	1.4267	14.758	0.019583
272.98	34.698	21.096	0.047402	8.6196	8.7841	43.947	41.572	111.66	537.99	0.042816	99.687	0.11063	0.0045715	2.2070	0.45309	17.396	18.968	81.252	38.336	81.726	212.14	1.4252	14.769	0.019615
273.08	34.788	21.083	0.047432	8.6295	8.7945	43.984	41.580	111.79	537.09	0.043069	99.516	0.11051	0.0045533	2.2139	0.45169	17.394	18.965	81.228	38.365	81.925	212.08	1.4237	14.779	0.019648
273.18	34.877	21.069	0.047462	8.6394	8.8050	44.020	41.589	111.92	536.18	0.043322	99.345	0.11039	0.0045350	2.2207	0.45030	17.392	18.963	81.204	38.394	82.125	212.03	1.4223	14.789	0.019681
273.27	34.967	21.056	0.047492	8.6493	8.8154	44.057	41.597	112.06	535.28	0.043577	99.175	0.11027	0.0045168	2.2276	0.44892	17.391	18.960	81.180	38.423	82.326	211.97	1.4208	14.799	0.019713
273.37	35.056	21.043	0.047522	8.6592	8.8258	44.094	41.605	112.19	534.38	0.043832	99.005	0.11016	0.0044987	2.2345	0.44754	17.389	18.958	81.157	38.452	82.528	211.91	1.4193	14.810	0.019746
273.47	35.146	21.030	0.047552	8.6691	8.8362	44.130	41.613	112.33	533.48	0.044088	98.836	0.11004	0.0044806	2.2413	0.44616	17.387	18.955	81.133	38.480	82.731	211.86	1.4179	14.820	0.019779
273.56	35.236	21.017	0.047581	8.6790	8.8466	44.166	41.621	112.46	532.58	0.044345	98.667	0.10992	0.0044626	2.2482	0.44480	17.385	18.953	81.109	38.509	82.934	211.80	1.4164	14.830	0.019812
273.66	35.325	21.003	0.047611	8.6888	8.8570	44.203	41.630	112.60	531.68	0.044602	98.499	0.10980	0.0044446	2.2551	0.44343	17.384	18.950	81.085	38.538	83.139	211.75	1.4150	14.841	0.019846
273.76	35.415	20.990	0.047641	8.6986	8.8674	44.239	41.638	112.73	530.78	0.044861	98.331	0.10969	0.0044267	2.2620	0.44208	17.382	18.948	81.061	38.567	83.344	211.69	1.4135	14.851	0.019879
273.85	35.505	20.977	0.047671	8.7085	8.8777	44.275	41.646	112.87	529.89	0.045120	98.163	0.10957	0.0044088	2.2689	0.44073	17.380	18.945	81.037	38.596	83.551	211.64	1.4121	14.861	0.019912
273.95	35.594	20.964	0.047701	8.7183	8.8881	44.312	41.655	113.01	528.99	0.045380	97.996	0.10945	0.0043909	2.2759	0.43939	17.379	18.943	81.014	38.625	83.758	211.58	1.4106	14.872	0.019946
274.04	35.684	20.951	0.047732	8.7281	8.8984	44.348	41.663	113.14	528.10	0.045641	97.830	0.10934	0.0043731	2.2828	0.43806	17.377	18.940	80.990	38.654	83.966	211.53	1.4092	14.882	0.019980
274.14	35.773	20.937	0.047762	8.7379	8.9088	44.384	41.672	113.28	527.21	0.045903	97.664	0.10922	0.0043554	2.2898	0.43673	17.375	18.937	80.966	38.683	84.175	211.47	1.4077	14.892	0.020013
274.24	35.863	20.924	0.047792	8.7477	8.9191	44.420	41.680	113.42	526.32	0.046165	97.499	0.10910	0.0043377	2.2967	0.43540	17.373	18.935	80.942	38.712	84.385	211.41	1.4063	14.903	0.020047
274.33	35.953	20.911	0.047822	8.7575	8.9294	44.456	41.689	113.56	525.43	0.046429	97.334	0.10899	0.0043201	2.3037	0.43409	17.371	18.932	80.919	38.742	84.596	211.36	1.4049	14.913	0.020081
274.42	36.042	20.898	0.047852	8.7672	8.9397	44.492	41.697	113.70	524.54	0.046693	97.169	0.10887	0.0043025	2.3107	0.43277	17.370	18.930	80.895	38.771	84.808	211.30	1.4034	14.923	0.020115
274.52	36.132	20.884	0.047882	8.7770	8.9500	44.528	41.706	113.84	523.65	0.046958	97.005	0.10876	0.0042849	2.3177	0.43147	17.368	18.927	80.871	38.800	85.021	211.25	1.4020	14.934	0.020149
274.61	36.222	20.871	0.047913	8.7867	8.9603	44.564	41.714	113.98	522.76	0.047224	96.841	0.10864	0.0042674	2.3247	0.43017	17.366	18.924	80.847	38.829	85.235	211.19	1.4006	14.944	0.020183
274.71	36.311	20.858	0.047943	8.7965	8.9706	44.600	41.723	114.13	521.88	0.047491	96.678	0.10852	0.0042500	2.3317	0.42888	17.364	18.922	80.824	38.858	85.450	211.13	1.3992	14.955	0.020218
274.80	36.401	20.845	0.047973	8.8062	8.9808	44.636	41.732	114.27	520.99	0.047758	96.515	0.10841	0.0042326	2.3387	0.42759	17.362	18.919	80.800	38.887	85.666	211.08	1.3977	14.965	0.020252
274.90	36.490	20.832	0.048004	8.8159	8.9911	44.671	41.740	114.41	520.11	0.048027	96.353	0.10830	0.0042152	2.3457	0.42631	17.361	18.916	80.776	38.916	85.882	211.02	1.3963	14.976	0.020287
274.99	36.580	20.818	0.048034	8.8256	9.0013	44.707	41.749	114.56	519.23	0.048296	96.191	0.10818	0.0041979	2.3528	0.42503	17.359	18.914	80.753	38.946	86.100	210.96	1.3949	14.986	0.020321
275.08	36.670	20.805	0.048065	8.8353	9.0116	44.743	41.758	114.70	518.35	0.048567	96.029	0.10807	0.0041807	2.3598	0.42376	17.357	18.911	80.729	38.975	86.319	210.91	1.3935	14.997	0.020356
275.18	36.759	20.792	0.048095	8.8450	9.0218	44.778	41.766	114.85	517.47	0.048838	95.868	0.10795	0.0041634	2.3669	0.42250	17.355	18.908	80.706	39.004	86.539	210.85	1.3921	15.007	0.020391
275.27	36.849	20.779	0.048126	8.8547	9.0320	44.814	41.775	114.99	516.59	0.049110	95.708	0.10784	0.0041463	2.3740	0.42124	17.353	18.905	80.682	39.033	86.760	210.80	1.3907	15.018	0.020426
275.36	36.938	20.766	0.048156	8.8643	9.0422	44.849	41.784	115.14	515.71	0.049383	95.547	0.10772	0.0041291	2.3810	0.41998	17.351	18.903	80.658	39.063	86.982	210.74	1.3892	15.028	0.020461
275.46	37.028	20.752	0.048187	8.8740	9.0524	44.885	41.793	115.29	514.83	0.049656	95.388	0.10761	0.0041121	2.3881	0.41874	17.349	18.900	80.635	39.092	87.205	210.68	1.3878	15.039	0.020497
275.55	37.118	20.739	0.048218	8.8836	9.0626	44.920	41.802	115.44	513.96	0.049931	95.228	0.10750	0.0040950	2.3952	0.41749	17.348	18.897	80.611	39.121	87.429	210.63	1.3864	15.049	0.020532
275.64	37.207	20.726	0.048248	8.8933	9.0728	44.956	41.811	115.58	513.09	0.050207	95.069	0.10738	0.0040781	2.4024	0.41626	17.346	18.894	80.588	39.151	87.654	210.57	1.3850	15.060	0.020567
275.73	37.297	20.713	0.048279	8.9029	9.0830	44.991	41.820	115.73	512.21	0.050483	94.911	0.10727	0.0040611	2.4095	0.41503	17.344	18.892	80.564	39.180	87.880	210.51	1.3836	15.071	0.020603
275.83	37.387	20.700	0.048310	8.9125	9.0931	45.026	41.828	115.88	511.34	0.050761	94.753	0.10716	0.0040442	2.4166	0.41380	17.342	18.889	80.540	39.210	88.107	210.46	1.3822	15.081	0.020639
275.92	37.476	20.687	0.048341	8.9221	9.1033	45.062	41.837	116.04	510.47	0.051039	94.595	0.10704	0.0040274	2.4238	0.41258	17.340	18.886	80.517	39.239	88.335	210.40	1.3808	15.092	0.020674
276.01	37.566	20.673	0.048371	8.9317	9.1134	45.097	41.846	116.19	509.60	0.051318	94.438	0.10693	0.0040106	2.4309	0.41136	17.338	18.883	80.493	39.268	88.565	210.34	1.3794	15.103	0.020710
276.10	37.655	20.660	0.048402	8.9413	9.1236	45.132	41.855	116.34	508.73	0.051598	94.281	0.10682	0.0039938	2.4381	0.41015	17.336	18.880	80.470	39.298	88.795	210.28	1.3781	15.113	0.020746
276.19	37.745	20.647	0.048433	8.9509	9.1337	45.167	41.864	116.49	507.87	0.051880	94.125	0.10671	0.0039771	2.4453	0.40895	17.334	18.878	80.446	39.327	89.027	210.23	1.3767	15.124	0.020783
276.29	37.835	20.634	0.048464	8.9605	9.1438	45.202	41.873	116.65	507.00	0.052162	93.968	0.10660	0.0039604	2.4525	0.40775	17.332	18.875	80.423	39.357	89.260	210.17	1.3753	15.135	0.020819
276.38	37.924	20.621	0.048495	8.9700	9.1540	45.237	41.882	116.80	506.14	0.052445	93.813	0.10648	0.0039438	2.4597	0.40655	17.330	18.872	80.399	39.387	89.493	210.11	1.3739	15.145	0.020855
276.47	38.014	20.607	0.048526	8.9796	9.1641	45.272	41.892	116.96	505.27	0.052729	93.658	0.10637	0.0039272	2.4669	0.40536	17.328	18.869	80.376	39.416	89.728	210.06	1.3725	15.156	0.020892
276.56	38.104	20.594	0.048557	8.9891	9.1742	45.307	41.901	117.11	504.41	0.053014	93.503	0.10626	0.0039107	2.4741	0.40418	17.326	18.866	80.352	39.446	89.965	210.00	1.3711	15.167	0.020928
276.65	38.193	20.581	0.048589	8.9987	9.1842	45.342	41.910	117.27	503.55	0.053299	93.348	0.10615	0.0038942	2.4814	0.40300	17.324	18.863	80.329	39.475	90.202	209.94	1.3698	15.178	0.020965
276.74	38.283	20.568	0.048620	9.0082	9.1943	45.377	41.919	117.43	502.69	0.053586	93.194	0.10604	0.0038778	2.4886	0.40183	17.322	18.860	80.305	39.505	90.440	209.88	1.3684	15.188	0.021002
276.83	38.372	20.555	0.048651	9.0177	9.2044	45.412	41.928	117.58	501.83	0.053874	93.040	0.10593	0.0038614	2.4959	0.40066	17.320	18.858	80.282	39.535	90.680	209.83	1.3670	15.199	0.021039
276.92	38.462	20.541	0.048682	9.0272	9.2145	45.447	41.937	117.74	500.97	0.054163	92.887	0.10582	0.0038450	2.5032	0.39949	17.318	18.855	80.258	39.564	90.921	209.77	1.3656	15.210	0.021076
277.01	38.552	20.528	0.048713	9.0367	9.2245	45.481	41.946	117.90	500.11	0.054453	92.734	0.10570	0.0038287	2.5105	0.39833	17.316	18.852	80.235	39.594	91.163	209.71	1.3643	15.221	0.021114
277.10	38.641	20.515	0.048745	9.0462	9.2346	45.516	41.956	118.06	499.26	0.054743	92.582	0.10559	0.0038124	2.5178	0.39718	17.314	18.849	80.211	39.624	91.406	209.65	1.3629	15.232	0.021151
277.19	38.731	20.502	0.048776	9.0557	9.2446	45.551	41.965	118.22	498.40	0.055035	92.429	0.10548	0.0037962	2.5251	0.39603	17.312	18.846	80.188	39.654	91.650	209.60	1.3615	15.243	0.021189
277.28	38.821	20.489	0.048808	9.0652	9.2547	45.585	41.974	118.39	497.55	0.055328	92.278	0.10537	0.0037800	2.5324	0.39488	17.310	18.843	80.165	39.684	91.896	209.54	1.3602	15.253	0.021226
277.37	38.910	20.475	0.048839	9.0747	9.2647	45.620	41.983	118.55	496.70	0.055621	92.126	0.10526	0.0037638	2.5397	0.39374	17.308	18.840	80.141	39.714	92.143	209.48	1.3588	15.264	0.021264
277.46	39.000	20.462	0.048871	9.0841	9.2747	45.654	41.993	118.71	495.85	0.055916	91.975	0.10515	0.0037477	2.5471	0.39261	17.306	18.837	80.118	39.743	92.391	209.42	1.3574	15.275	0.021302
277.55	39.089	20.449	0.048902	9.0936	9.2847	45.689	42.002	118.88	495.00	0.056212	91.825	0.10504	0.0037317	2.5544	0.39148	17.304	18.834	80.094	39.773	92.640	209.37	1.3561	15.286	0.021340
277.64	39.179	20.436	0.048934	9.1030	9.2947	45.723	42.011	119.04	494.15	0.056509	91.674	0.10493	0.0037157	2.5618	0.39035	17.302	18.831	80.071	39.803	92.891	209.31	1.3547	15.297	0.021378
277.73	39.269	20.423	0.048965	9.1124	9.3047	45.758	42.021	119.21	493.30	0.056807	91.524	0.10483	0.0036997	2.5692	0.38923	17.300	18.828	80.047	39.833	93.143	209.25	1.3534	15.308	0.021417
277.82	39.358	20.409	0.048997	9.1219	9.3147	45.792	42.030	119.37	492.45	0.057105	91.375	0.10472	0.0036838	2.5766	0.38811	17.297	18.825	80.024	39.863	93.396	209.19	1.3520	15.319	0.021455
277.91	39.448	20.396	0.049029	9.1313	9.3247	45.826	42.039	119.54	491.61	0.057405	91.225	0.10461	0.0036679	2.5840	0.38700	17.295	18.822	80.001	39.893	93.650	209.13	1.3507	15.330	0.021494
278.00	39.538	20.383	0.049061	9.1407	9.3347	45.861	42.049	119.71	490.76	0.057706	91.076	0.10450	0.0036520	2.5914	0.38589	17.293	18.819	79.977	39.923	93.906	209.08	1.3493	15.341	0.021532
278.08	39.627	20.370	0.049092	9.1501	9.3446	45.895	42.058	119.88	489.92	0.058008	90.928	0.10439	0.0036362	2.5988	0.38479	17.291	18.816	79.954	39.954	94.163	209.02	1.3479	15.352	0.021571
278.17	39.717	20.356	0.049124	9.1595	9.3546	45.929	42.068	120.05	489.08	0.058311	90.780	0.10428	0.0036204	2.6063	0.38369	17.289	18.813	79.930	39.984	94.422	208.96	1.3466	15.363	0.021610
278.26	39.806	20.343	0.049156	9.1689	9.3646	45.964	42.077	120.22	488.23	0.058615	90.632	0.10417	0.0036047	2.6137	0.38259	17.287	18.810	79.907	40.014	94.682	208.90	1.3453	15.374	0.021650
278.35	39.896	20.330	0.049188	9.1783	9.3745	45.998	42.086	120.39	487.39	0.058920	90.484	0.10406	0.0035890	2.6212	0.38150	17.285	18.807	79.884	40.044	94.943	208.84	1.3439	15.385	0.021689
278.44	39.986	20.317	0.049220	9.1876	9.3845	46.032	42.096	120.57	486.55	0.059226	90.337	0.10396	0.0035734	2.6287	0.38042	17.282	18.803	79.860	40.074	95.205	208.78	1.3426	15.397	0.021728
278.52	40.075	20.304	0.049252	9.1970	9.3944	46.066	42.105	120.74	485.72	0.059534	90.190	0.10385	0.0035578	2.6362	0.37934	17.280	18.800	79.837	40.105	95.469	208.73	1.3412	15.408	0.021768
278.61	40.165	20.290	0.049284	9.2064	9.4043	46.100	42.115	120.91	484.88	0.059842	90.044	0.10374	0.0035422	2.6437	0.37826	17.278	18.797	79.813	40.135	95.734	208.67	1.3399	15.419	0.021808
278.70	40.254	20.277	0.049317	9.2157	9.4142	46.134	42.124	121.09	484.04	0.060151	89.898	0.10363	0.0035267	2.6512	0.37719	17.276	18.794	79.790	40.165	96.001	208.61	1.3385	15.430	0.021847
278.79	40.344	20.264	0.049349	9.2251	9.4242	46.168	42.134	121.27	483.21	0.060462	89.752	0.10353	0.0035112	2.6587	0.37612	17.274	18.791	79.767	40.196	96.269	208.55	1.3372	15.441	0.021887
278.87	40.434	20.251	0.049381	9.2344	9.4341	46.202	42.143	121.44	482.37	0.060773	89.607	0.10342	0.0034958	2.6663	0.37506	17.271	18.788	79.743	40.226	96.538	208.49	1.3359	15.452	0.021928
278.96	40.523	20.237	0.049413	9.2437	9.4440	46.236	42.153	121.62	481.54	0.061086	89.461	0.10331	0.0034804	2.6738	0.37400	17.269	18.785	79.720	40.257	96.809	208.43	1.3345	15.464	0.021968
279.05	40.613	20.224	0.049446	9.2531	9.4539	46.270	42.162	121.80	480.71	0.061400	89.317	0.10320	0.0034651	2.6814	0.37294	17.267	18.782	79.697	40.287	97.082	208.37	1.3332	15.475	0.022008
279.13	40.703	20.211	0.049478	9.2624	9.4638	46.304	42.172	121.98	479.88	0.061715	89.172	0.10310	0.0034497	2.6890	0.37189	17.265	18.778	79.673	40.318	97.356	208.32	1.3319	15.486	0.022049
279.22	40.792	20.198	0.049511	9.2717	9.4736	46.337	42.182	122.16	479.05	0.062031	89.028	0.10299	0.0034345	2.6966	0.37084	17.262	18.775	79.650	40.348	97.631	208.26	1.3305	15.498	0.022090
279.31	40.882	20.184	0.049543	9.2810	9.4835	46.371	42.191	122.34	478.22	0.062348	88.884	0.10288	0.0034192	2.7042	0.36980	17.260	18.772	79.627	40.379	97.908	208.20	1.3292	15.509	0.022131
279.39	40.971	20.171	0.049576	9.2903	9.4934	46.405	42.201	122.52	477.39	0.062667	88.741	0.10278	0.0034040	2.7118	0.36876	17.258	18.769	79.603	40.410	98.186	208.14	1.3279	15.520	0.022172
279.48	41.061	20.158	0.049608	9.2996	9.5033	46.439	42.211	122.71	476.56	0.062986	88.597	0.10267	0.0033889	2.7194	0.36772	17.256	18.765	79.580	40.440	98.466	208.08	1.3266	15.532	0.022213
279.56	41.151	20.145	0.049641	9.3088	9.5131	46.472	42.220	122.89	475.74	0.063307	88.455	0.10256	0.0033737	2.7271	0.36669	17.253	18.762	79.556	40.471	98.747	208.02	1.3252	15.543	0.022254
279.65	41.240	20.131	0.049674	9.3181	9.5230	46.506	42.230	123.08	474.91	0.063628	88.312	0.10246	0.0033587	2.7348	0.36566	17.251	18.759	79.533	40.502	99.030	207.96	1.3239	15.554	0.022296
279.74	41.330	20.118	0.049707	9.3274	9.5328	46.540	42.240	123.26	474.09	0.063951	88.170	0.10235	0.0033436	2.7424	0.36464	17.249	18.756	79.510	40.533	99.314	207.90	1.3226	15.566	0.022338
279.82	41.420	20.105	0.049739	9.3366	9.5427	46.573	42.249	123.45	473.26	0.064276	88.028	0.10225	0.0033286	2.7501	0.36362	17.246	18.752	79.486	40.563	99.600	207.84	1.3213	15.577	0.022379
279.91	41.509	20.092	0.049772	9.3459	9.5525	46.607	42.259	123.64	472.44	0.064601	87.886	0.10214	0.0033137	2.7578	0.36261	17.244	18.749	79.463	40.594	99.888	207.78	1.3199	15.589	0.022421
279.99	41.599	20.078	0.049805	9.3552	9.5623	46.640	42.269	123.83	471.62	0.064927	87.745	0.10204	0.0032987	2.7655	0.36159	17.242	18.746	79.440	40.625	100.18	207.72	1.3186	15.600	0.022464
280.08	41.688	20.065	0.049838	9.3644	9.5722	46.674	42.278	124.02	470.80	0.065255	87.604	0.10193	0.0032839	2.7733	0.36059	17.239	18.743	79.416	40.656	100.47	207.66	1.3173	15.612	0.022506
280.16	41.778	20.052	0.049871	9.3736	9.5820	46.707	42.288	124.21	469.98	0.065584	87.463	0.10183	0.0032690	2.7810	0.35958	17.237	18.739	79.393	40.687	100.76	207.60	1.3160	15.623	0.022548
280.25	41.868	20.038	0.049904	9.3829	9.5918	46.741	42.298	124.41	469.16	0.065914	87.323	0.10172	0.0032542	2.7888	0.35858	17.235	18.736	79.369	40.718	101.05	207.54	1.3147	15.635	0.022591
280.33	41.957	20.025	0.049937	9.3921	9.6016	46.774	42.308	124.60	468.35	0.066245	87.183	0.10162	0.0032394	2.7965	0.35759	17.232	18.733	79.346	40.749	101.35	207.49	1.3133	15.647	0.022634
280.42	42.047	20.012	0.049971	9.4013	9.6114	46.807	42.317	124.79	467.53	0.066578	87.043	0.10151	0.0032247	2.8043	0.35659	17.230	18.729	79.323	40.781	101.65	207.43	1.3120	15.658	0.022677
280.50	42.137	19.998	0.050004	9.4105	9.6212	46.841	42.327	124.99	466.72	0.066911	86.903	0.10141	0.0032100	2.8121	0.35560	17.227	18.726	79.299	40.812	101.95	207.37	1.3107	15.670	0.022720
280.58	42.226	19.985	0.050037	9.4197	9.6310	46.874	42.337	125.19	465.90	0.067246	86.764	0.10130	0.0031954	2.8199	0.35462	17.225	18.722	79.276	40.843	102.25	207.31	1.3094	15.682	0.022763
280.67	42.316	19.972	0.050071	9.4289	9.6408	46.907	42.347	125.38	465.09	0.067583	86.625	0.10120	0.0031807	2.8278	0.35364	17.223	18.719	79.252	40.874	102.55	207.25	1.3081	15.693	0.022807
280.75	42.405	19.958	0.050104	9.4381	9.6506	46.941	42.357	125.58	464.28	0.067920	86.486	0.10110	0.0031662	2.8356	0.35266	17.220	18.716	79.229	40.906	102.85	207.19	1.3068	15.705	0.022850
280.84	42.495	19.945	0.050138	9.4473	9.6604	46.974	42.367	125.78	463.47	0.068259	86.348	0.10099	0.0031516	2.8434	0.35169	17.218	18.712	79.206	40.937	103.16	207.13	1.3055	15.717	0.022894
280.92	42.585	19.932	0.050171	9.4565	9.6701	47.007	42.376	125.99	462.66	0.068599	86.210	0.10089	0.0031371	2.8513	0.35072	17.215	18.709	79.182	40.968	103.47	207.07	1.3042	15.728	0.022938
281.00	42.674	19.918	0.050205	9.4657	9.6799	47.040	42.386	126.19	461.85	0.068940	86.072	0.10078	0.0031227	2.8592	0.34975	17.213	18.705	79.159	41.000	103.78	207.01	1.3029	15.740	0.022982
281.09	42.764	19.905	0.050238	9.4748	9.6897	47.073	42.396	126.39	461.04	0.069283	85.935	0.10068	0.0031082	2.8671	0.34878	17.210	18.702	79.135	41.031	104.09	206.95	1.3016	15.752	0.023027
281.17	42.854	19.892	0.050272	9.4840	9.6994	47.107	42.406	126.60	460.23	0.069626	85.797	0.10058	0.0030938	2.8750	0.34783	17.208	18.698	79.112	41.063	104.40	206.89	1.3002	15.764	0.023071
281.25	42.943	19.878	0.050306	9.4932	9.7092	47.140	42.416	126.80	459.42	0.069971	85.660	0.10047	0.0030795	2.8829	0.34687	17.205	18.695	79.089	41.094	104.71	206.82	1.2989	15.776	0.023116
281.34	43.033	19.865	0.050340	9.5023	9.7189	47.173	42.426	127.01	458.62	0.070318	85.524	0.10037	0.0030652	2.8909	0.34592	17.203	18.692	79.065	41.126	105.03	206.76	1.2976	15.788	0.023161
281.42	43.122	19.852	0.050374	9.5115	9.7287	47.206	42.436	127.22	457.81	0.070665	85.387	0.10027	0.0030509	2.8988	0.34497	17.200	18.688	79.042	41.158	105.35	206.70	1.2963	15.800	0.023206
281.50	43.212	19.838	0.050408	9.5206	9.7384	47.239	42.446	127.43	457.01	0.071014	85.251	0.10017	0.0030366	2.9068	0.34402	17.198	18.685	79.018	41.190	105.67	206.64	1.2950	15.812	0.023251
281.59	43.302	19.825	0.050442	9.5297	9.7482	47.272	42.456	127.64	456.21	0.071365	85.115	0.10006	0.0030224	2.9148	0.34308	17.195	18.681	78.995	41.221	105.99	206.58	1.2937	15.823	0.023297
281.67	43.391	19.811	0.050476	9.5389	9.7579	47.305	42.466	127.85	455.41	0.071716	84.980	0.099960	0.0030083	2.9228	0.34214	17.193	18.677	78.971	41.253	106.32	206.52	1.2924	15.835	0.023342
281.75	43.481	19.798	0.050510	9.5480	9.7676	47.338	42.476	128.06	454.60	0.072069	84.844	0.099858	0.0029941	2.9308	0.34120	17.190	18.674	78.948	41.285	106.64	206.46	1.2911	15.848	0.023388
281.83	43.570	19.785	0.050544	9.5571	9.7774	47.370	42.486	128.28	453.80	0.072424	84.709	0.099756	0.0029800	2.9388	0.34027	17.188	18.670	78.925	41.317	106.97	206.40	1.2898	15.860	0.023434
281.92	43.660	19.771	0.050579	9.5662	9.7871	47.403	42.496	128.49	453.01	0.072780	84.574	0.099654	0.0029660	2.9469	0.33934	17.185	18.667	78.901	41.349	107.30	206.34	1.2885	15.872	0.023480
282.00	43.750	19.758	0.050613	9.5754	9.7968	47.436	42.506	128.71	452.21	0.073137	84.440	0.099552	0.0029519	2.9549	0.33842	17.183	18.663	78.878	41.381	107.63	206.28	1.2872	15.884	0.023527
282.08	43.839	19.744	0.050647	9.5845	9.8065	47.469	42.516	128.93	451.41	0.073495	84.306	0.099450	0.0029380	2.9630	0.33749	17.180	18.660	78.854	41.413	107.97	206.22	1.2859	15.896	0.023573
282.16	43.929	19.731	0.050682	9.5936	9.8162	47.502	42.526	129.14	450.61	0.073855	84.171	0.099348	0.0029240	2.9711	0.33657	17.177	18.656	78.831	41.445	108.30	206.16	1.2846	15.908	0.023620
282.24	44.019	19.718	0.050716	9.6027	9.8259	47.535	42.537	129.36	449.82	0.074216	84.038	0.099247	0.0029101	2.9792	0.33566	17.175	18.652	78.807	41.478	108.64	206.10	1.2833	15.920	0.023667
282.33	44.108	19.704	0.050751	9.6118	9.8356	47.567	42.547	129.59	449.02	0.074579	83.904	0.099145	0.0028962	2.9873	0.33475	17.172	18.649	78.784	41.510	108.98	206.03	1.2821	15.932	0.023714
282.41	44.198	19.691	0.050786	9.6209	9.8453	47.600	42.557	129.81	448.23	0.074943	83.771	0.099044	0.0028824	2.9955	0.33384	17.170	18.645	78.760	41.542	109.32	205.97	1.2808	15.945	0.023761
282.49	44.287	19.677	0.050820	9.6299	9.8550	47.633	42.567	130.03	447.44	0.075308	83.638	0.098943	0.0028685	3.0036	0.33293	17.167	18.641	78.737	41.574	109.67	205.91	1.2795	15.957	0.023809
282.57	44.377	19.664	0.050855	9.6390	9.8647	47.666	42.577	130.26	446.64	0.075675	83.505	0.098842	0.0028548	3.0118	0.33203	17.164	18.638	78.713	41.607	110.01	205.85	1.2782	15.969	0.023857
282.65	44.467	19.650	0.050890	9.6481	9.8744	47.698	42.587	130.49	445.85	0.076043	83.373	0.098741	0.0028410	3.0200	0.33113	17.162	18.634	78.690	41.639	110.36	205.79	1.2769	15.982	0.023904
282.73	44.556	19.637	0.050925	9.6572	9.8841	47.731	42.598	130.72	445.06	0.076413	83.240	0.098640	0.0028273	3.0282	0.33023	17.159	18.630	78.666	41.672	110.71	205.73	1.2756	15.994	0.023953
282.81	44.646	19.623	0.050960	9.6662	9.8938	47.763	42.608	130.94	444.27	0.076784	83.108	0.098539	0.0028137	3.0364	0.32934	17.156	18.627	78.642	41.704	111.06	205.67	1.2743	16.006	0.024001
282.89	44.736	19.610	0.050995	9.6753	9.9034	47.796	42.618	131.18	443.48	0.077156	82.976	0.098439	0.0028000	3.0446	0.32845	17.154	18.623	78.619	41.737	111.42	205.60	1.2730	16.019	0.024049
282.97	44.825	19.596	0.051030	9.6844	9.9131	47.829	42.628	131.41	442.70	0.077530	82.845	0.098339	0.0027864	3.0529	0.32756	17.151	18.619	78.595	41.770	111.78	205.54	1.2717	16.031	0.024098
283.05	44.915	19.583	0.051065	9.6934	9.9228	47.861	42.639	131.64	441.91	0.077906	82.713	0.098238	0.0027729	3.0612	0.32667	17.148	18.616	78.572	41.803	112.14	205.48	1.2704	16.044	0.024147
283.13	45.004	19.569	0.051101	9.7025	9.9324	47.894	42.649	131.88	441.12	0.078283	82.582	0.098138	0.0027593	3.0694	0.32579	17.146	18.612	78.548	41.835	112.50	205.42	1.2691	16.056	0.024196
283.21	45.094	19.556	0.051136	9.7115	9.9421	47.926	42.659	132.12	440.34	0.078661	82.451	0.098038	0.0027458	3.0777	0.32491	17.143	18.608	78.525	41.868	112.86	205.36	1.2678	16.069	0.024246
283.29	45.184	19.542	0.051172	9.7206	9.9518	47.959	42.670	132.35	439.55	0.079041	82.321	0.097939	0.0027324	3.0861	0.32404	17.140	18.604	78.501	41.901	113.23	205.30	1.2666	16.081	0.024295
283.37	45.273	19.529	0.051207	9.7296	9.9614	47.991	42.680	132.59	438.77	0.079423	82.190	0.097839	0.0027190	3.0944	0.32317	17.137	18.600	78.477	41.934	113.60	205.23	1.2653	16.094	0.024345
283.45	45.363	19.515	0.051243	9.7386	9.9711	48.024	42.691	132.83	437.98	0.079806	82.060	0.097739	0.0027056	3.1027	0.32230	17.135	18.597	78.454	41.967	113.97	205.17	1.2640	16.106	0.024395
283.53	45.453	19.501	0.051278	9.7477	9.9807	48.056	42.701	133.08	437.20	0.080190	81.930	0.097640	0.0026922	3.1111	0.32143	17.132	18.593	78.430	42.000	114.34	205.11	1.2627	16.119	0.024445
283.61	45.542	19.488	0.051314	9.7567	9.9904	48.088	42.712	133.32	436.42	0.080577	81.801	0.097541	0.0026789	3.1195	0.32056	17.129	18.589	78.406	42.034	114.72	205.05	1.2614	16.132	0.024496
283.69	45.632	19.474	0.051350	9.7657	10.000	48.121	42.722	133.57	435.64	0.080964	81.671	0.097441	0.0026656	3.1279	0.31970	17.126	18.585	78.383	42.067	115.09	204.98	1.2601	16.144	0.024547
283.77	45.721	19.461	0.051386	9.7747	10.010	48.153	42.732	133.81	434.86	0.081353	81.542	0.097342	0.0026524	3.1363	0.31885	17.123	18.581	78.359	42.100	115.48	204.92	1.2588	16.157	0.024597
283.85	45.811	19.447	0.051422	9.7837	10.019	48.186	42.743	134.06	434.08	0.081744	81.413	0.097243	0.0026391	3.1447	0.31799	17.121	18.577	78.335	42.133	115.86	204.86	1.2575	16.170	0.024649
283.93	45.901	19.433	0.051458	9.7928	10.029	48.218	42.754	134.31	433.30	0.082136	81.284	0.097145	0.0026259	3.1532	0.31714	17.118	18.574	78.312	42.167	116.24	204.80	1.2563	16.183	0.024700
284.01	45.990	19.420	0.051494	9.8018	10.039	48.250	42.764	134.57	432.52	0.082530	81.155	0.097046	0.0026128	3.1617	0.31629	17.115	18.570	78.288	42.200	116.63	204.73	1.2550	16.196	0.024752
284.09	46.080	19.406	0.051530	9.8108	10.048	48.283	42.775	134.82	431.75	0.082926	81.027	0.096947	0.0025997	3.1702	0.31544	17.112	18.566	78.264	42.234	117.02	204.67	1.2537	16.208	0.024803
284.17	46.170	19.393	0.051566	9.8198	10.058	48.315	42.785	135.07	430.97	0.083323	80.899	0.096849	0.0025866	3.1787	0.31460	17.109	18.562	78.240	42.268	117.42	204.61	1.2524	16.221	0.024855
284.25	46.259	19.379	0.051603	9.8288	10.067	48.347	42.796	135.33	430.19	0.083722	80.771	0.096751	0.0025735	3.1872	0.31376	17.106	18.558	78.217	42.301	117.81	204.55	1.2511	16.234	0.024908
284.33	46.349	19.365	0.051639	9.8378	10.077	48.379	42.807	135.59	429.42	0.084122	80.643	0.096652	0.0025605	3.1957	0.31292	17.104	18.554	78.193	42.335	118.21	204.48	1.2498	16.247	0.024960
284.40	46.438	19.352	0.051675	9.8468	10.087	48.412	42.817	135.85	428.65	0.084524	80.515	0.096554	0.0025475	3.2043	0.31208	17.101	18.550	78.169	42.369	118.61	204.42	1.2485	16.260	0.025013
284.48	46.528	19.338	0.051712	9.8558	10.096	48.444	42.828	136.11	427.87	0.084928	80.388	0.096457	0.0025346	3.2128	0.31125	17.098	18.546	78.145	42.403	119.02	204.36	1.2473	16.273	0.025066
284.56	46.618	19.324	0.051749	9.8648	10.106	48.476	42.839	136.38	427.10	0.085333	80.261	0.096359	0.0025217	3.2214	0.31042	17.095	18.542	78.122	42.437	119.42	204.29	1.2460	16.286	0.025119
284.64	46.707	19.310	0.051785	9.8737	10.116	48.508	42.850	136.64	426.33	0.085740	80.134	0.096261	0.0025088	3.2301	0.30959	17.092	18.538	78.098	42.471	119.83	204.23	1.2447	16.300	0.025173
284.72	46.797	19.297	0.051822	9.8827	10.125	48.540	42.860	136.91	425.56	0.086149	80.007	0.096164	0.0024960	3.2387	0.30877	17.089	18.534	78.074	42.505	120.24	204.17	1.2434	16.313	0.025226
284.79	46.886	19.283	0.051859	9.8917	10.135	48.572	42.871	137.18	424.79	0.086559	79.881	0.096066	0.0024831	3.2473	0.30795	17.086	18.530	78.050	42.539	120.66	204.10	1.2421	16.326	0.025280
284.87	46.976	19.269	0.051896	9.9007	10.144	48.604	42.882	137.45	424.02	0.086971	79.754	0.095969	0.0024704	3.2560	0.30713	17.083	18.526	78.026	42.573	121.08	204.04	1.2408	16.339	0.025334
284.95	47.066	19.256	0.051933	9.9097	10.154	48.637	42.893	137.72	423.25	0.087385	79.628	0.095872	0.0024576	3.2647	0.30631	17.080	18.522	78.002	42.607	121.50	203.98	1.2395	16.352	0.025389
285.03	47.155	19.242	0.051970	9.9186	10.164	48.669	42.904	137.99	422.48	0.087800	79.502	0.095775	0.0024449	3.2734	0.30549	17.077	18.518	77.978	42.642	121.92	203.91	1.2383	16.366	0.025444
285.11	47.245	19.228	0.052007	9.9276	10.173	48.701	42.915	138.27	421.71	0.088217	79.377	0.095678	0.0024322	3.2821	0.30468	17.074	18.514	77.954	42.676	122.35	203.85	1.2370	16.379	0.025499
285.18	47.335	19.214	0.052045	9.9366	10.183	48.733	42.926	138.55	420.94	0.088636	79.251	0.095581	0.0024195	3.2908	0.30387	17.071	18.510	77.930	42.711	122.77	203.79	1.2357	16.392	0.025554
285.26	47.424	19.200	0.052082	9.9455	10.193	48.765	42.937	138.83	420.18	0.089057	79.126	0.095484	0.0024069	3.2996	0.30307	17.068	18.505	77.906	42.745	123.21	203.72	1.2344	16.406	0.025609
285.34	47.514	19.187	0.052120	9.9545	10.202	48.797	42.948	139.11	419.41	0.089480	79.000	0.095388	0.0023943	3.3084	0.30226	17.065	18.501	77.883	42.780	123.64	203.66	1.2331	16.419	0.025665
285.41	47.603	19.173	0.052157	9.9634	10.212	48.829	42.959	139.39	418.64	0.089904	78.875	0.095291	0.0023818	3.3172	0.30146	17.062	18.497	77.859	42.815	124.08	203.60	1.2318	16.433	0.025721
285.49	47.693	19.159	0.052195	9.9724	10.221	48.861	42.970	139.68	417.88	0.090330	78.751	0.095195	0.0023693	3.3260	0.30066	17.059	18.493	77.835	42.850	124.52	203.53	1.2305	16.446	0.025777
285.57	47.783	19.145	0.052233	9.9814	10.231	48.893	42.981	139.97	417.12	0.090758	78.626	0.095099	0.0023568	3.3348	0.29986	17.056	18.489	77.810	42.885	124.97	203.47	1.2293	16.460	0.025834
285.64	47.872	19.131	0.052270	9.9903	10.241	48.925	42.992	140.25	416.35	0.091187	78.502	0.095003	0.0023443	3.3437	0.29907	17.053	18.485	77.786	42.920	125.41	203.40	1.2280	16.473	0.025891
285.72	47.962	19.117	0.052308	9.9993	10.250	48.957	43.003	140.55	415.59	0.091619	78.377	0.094907	0.0023319	3.3526	0.29828	17.050	18.480	77.762	42.955	125.86	203.34	1.2267	16.487	0.025948
285.80	48.052	19.104	0.052346	10.008	10.260	48.989	43.014	140.84	414.83	0.092052	78.253	0.094811	0.0023195	3.3615	0.29749	17.047	18.476	77.738	42.990	126.32	203.27	1.2254	16.501	0.026005
285.87	48.141	19.090	0.052384	10.017	10.269	49.021	43.026	141.13	414.07	0.092487	78.129	0.094716	0.0023071	3.3704	0.29670	17.044	18.472	77.714	43.025	126.78	203.21	1.2241	16.514	0.026063
285.95	48.231	19.076	0.052423	10.026	10.279	49.053	43.037	141.43	413.30	0.092925	78.006	0.094620	0.0022948	3.3793	0.29592	17.041	18.468	77.690	43.060	127.24	203.15	1.2228	16.528	0.026120
286.03	48.320	19.062	0.052461	10.035	10.289	49.085	43.048	141.73	412.54	0.093363	77.882	0.094525	0.0022825	3.3883	0.29514	17.037	18.464	77.666	43.096	127.70	203.08	1.2215	16.542	0.026179
286.10	48.410	19.048	0.052499	10.044	10.298	49.117	43.060	142.03	411.78	0.093804	77.759	0.094429	0.0022702	3.3972	0.29436	17.034	18.459	77.642	43.131	128.17	203.02	1.2203	16.556	0.026237
286.18	48.500	19.034	0.052538	10.053	10.308	49.148	43.071	142.34	411.02	0.094247	77.636	0.094334	0.0022580	3.4062	0.29358	17.031	18.455	77.618	43.167	128.64	202.95	1.2190	16.569	0.026296
286.25	48.589	19.020	0.052576	10.062	10.317	49.180	43.082	142.64	410.27	0.094692	77.513	0.094239	0.0022458	3.4153	0.29280	17.028	18.451	77.593	43.202	129.11	202.89	1.2177	16.583	0.026355
286.33	48.679	19.006	0.052615	10.071	10.327	49.212	43.094	142.95	409.51	0.095138	77.390	0.094144	0.0022336	3.4243	0.29203	17.025	18.446	77.569	43.238	129.59	202.82	1.2164	16.597	0.026414
286.41	48.769	18.992	0.052654	10.080	10.337	49.244	43.105	143.26	408.75	0.095587	77.267	0.094049	0.0022215	3.4334	0.29126	17.022	18.442	77.545	43.274	130.07	202.76	1.2151	16.611	0.026474
286.48	48.858	18.978	0.052692	10.089	10.346	49.276	43.117	143.57	407.99	0.096037	77.145	0.093955	0.0022094	3.4424	0.29049	17.018	18.438	77.521	43.310	130.55	202.69	1.2138	16.625	0.026534
286.56	48.948	18.964	0.052731	10.098	10.356	49.308	43.129	143.89	407.24	0.096490	77.022	0.093860	0.0021973	3.4515	0.28973	17.015	18.433	77.496	43.345	131.04	202.63	1.2125	16.639	0.026594
286.63	49.037	18.950	0.052770	10.107	10.365	49.340	43.140	144.20	406.48	0.096944	76.900	0.093766	0.0021853	3.4606	0.28896	17.012	18.429	77.472	43.381	131.53	202.56	1.2112	16.653	0.026654
286.71	49.127	18.936	0.052809	10.115	10.375	49.372	43.152	144.52	405.72	0.097400	76.778	0.093672	0.0021733	3.4698	0.28820	17.009	18.425	77.448	43.418	132.03	202.50	1.2100	16.668	0.026715
286.78	49.217	18.922	0.052849	10.124	10.385	49.403	43.164	144.84	404.97	0.097859	76.656	0.093577	0.0021613	3.4790	0.28744	17.005	18.420	77.423	43.454	132.53	202.43	1.2087	16.682	0.026776
286.86	49.306	18.908	0.052888	10.133	10.394	49.435	43.175	145.17	404.21	0.098319	76.535	0.093483	0.0021493	3.4881	0.28669	17.002	18.416	77.399	43.490	133.03	202.37	1.2074	16.696	0.026837
286.93	49.396	18.894	0.052927	10.142	10.404	49.467	43.187	145.49	403.46	0.098782	76.413	0.093389	0.0021374	3.4973	0.28593	16.999	18.411	77.375	43.527	133.54	202.30	1.2061	16.710	0.026899
287.01	49.486	18.880	0.052967	10.151	10.413	49.499	43.199	145.82	402.71	0.099246	76.292	0.093296	0.0021255	3.5066	0.28518	16.996	18.407	77.350	43.563	134.05	202.23	1.2048	16.725	0.026961
287.08	49.575	18.866	0.053007	10.160	10.423	49.531	43.211	146.15	401.95	0.099713	76.170	0.093202	0.0021137	3.5158	0.28443	16.992	18.402	77.326	43.600	134.56	202.17	1.2035	16.739	0.027023
287.16	49.665	18.851	0.053046	10.169	10.433	49.562	43.223	146.48	401.20	0.10018	76.049	0.093108	0.0021018	3.5251	0.28368	16.989	18.398	77.301	43.636	135.08	202.10	1.2022	16.753	0.027086
287.23	49.754	18.837	0.053086	10.178	10.442	49.594	43.235	146.82	400.45	0.10065	75.928	0.093015	0.0020900	3.5344	0.28293	16.986	18.393	77.277	43.673	135.60	202.04	1.2009	16.768	0.027149
287.30	49.844	18.823	0.053126	10.187	10.452	49.626	43.247	147.16	399.70	0.10113	75.808	0.092922	0.0020783	3.5437	0.28219	16.982	18.389	77.252	43.710	136.13	201.97	1.1996	16.782	0.027212
287.38	49.934	18.809	0.053166	10.196	10.461	49.658	43.259	147.50	398.94	0.10160	75.687	0.092829	0.0020665	3.5530	0.28145	16.979	18.384	77.228	43.747	136.66	201.90	1.1983	16.797	0.027276
287.45	50.023	18.795	0.053206	10.205	10.471	49.689	43.271	147.84	398.19	0.10208	75.567	0.092736	0.0020548	3.5624	0.28071	16.976	18.380	77.203	43.784	137.19	201.84	1.1970	16.811	0.027340
287.53	50.113	18.781	0.053247	10.214	10.481	49.721	43.283	148.19	397.44	0.10256	75.446	0.092643	0.0020431	3.5718	0.27997	16.972	18.375	77.179	43.821	137.73	201.77	1.1957	16.826	0.027404
287.60	50.203	18.766	0.053287	10.223	10.490	49.753	43.295	148.53	396.69	0.10304	75.326	0.092550	0.0020315	3.5812	0.27924	16.969	18.371	77.154	43.858	138.27	201.71	1.1944	16.841	0.027469
287.68	50.292	18.752	0.053327	10.232	10.500	49.785	43.307	148.89	395.94	0.10352	75.206	0.092457	0.0020199	3.5906	0.27850	16.965	18.366	77.129	43.895	138.82	201.64	1.1931	16.855	0.027533
287.75	50.382	18.738	0.053368	10.240	10.509	49.816	43.320	149.24	395.19	0.10401	75.086	0.092365	0.0020083	3.6001	0.27777	16.962	18.362	77.105	43.933	139.37	201.57	1.1918	16.870	0.027599
287.82	50.471	18.724	0.053409	10.249	10.519	49.848	43.332	149.59	394.44	0.10450	74.966	0.092272	0.0019968	3.6095	0.27704	16.959	18.357	77.080	43.970	139.93	201.51	1.1905	16.885	0.027664
287.90	50.561	18.709	0.053449	10.258	10.529	49.880	43.344	149.95	393.69	0.10499	74.847	0.092180	0.0019852	3.6190	0.27632	16.955	18.352	77.055	44.008	140.49	201.44	1.1892	16.900	0.027730
287.97	50.651	18.695	0.053490	10.267	10.538	49.911	43.357	150.31	392.95	0.10548	74.727	0.092088	0.0019737	3.6286	0.27559	16.952	18.348	77.030	44.046	141.05	201.37	1.1879	16.915	0.027797
288.04	50.740	18.681	0.053531	10.276	10.548	49.943	43.369	150.68	392.20	0.10597	74.608	0.091996	0.0019623	3.6381	0.27487	16.948	18.343	77.006	44.084	141.62	201.31	1.1866	16.930	0.027863
288.12	50.830	18.666	0.053572	10.285	10.557	49.975	43.382	151.05	391.45	0.10647	74.489	0.091904	0.0019509	3.6477	0.27415	16.945	18.338	76.981	44.121	142.20	201.24	1.1853	16.945	0.027930
288.19	50.919	18.652	0.053614	10.294	10.567	50.007	43.395	151.42	390.70	0.10697	74.370	0.091812	0.0019395	3.6573	0.27343	16.941	18.334	76.956	44.159	142.77	201.17	1.1840	16.960	0.027997
288.26	51.009	18.638	0.053655	10.303	10.577	50.038	43.407	151.79	389.96	0.10747	74.251	0.091721	0.0019281	3.6669	0.27271	16.938	18.329	76.931	44.198	143.36	201.10	1.1827	16.975	0.028065
288.34	51.099	18.623	0.053697	10.312	10.586	50.070	43.420	152.16	389.21	0.10798	74.132	0.091629	0.0019167	3.6765	0.27200	16.934	18.324	76.906	44.236	143.94	201.04	1.1814	16.990	0.028133
288.41	51.188	18.609	0.053738	10.321	10.596	50.102	43.433	152.54	388.46	0.10848	74.013	0.091538	0.0019054	3.6862	0.27128	16.931	18.319	76.881	44.274	144.54	200.97	1.1801	17.005	0.028202
288.48	51.278	18.594	0.053780	10.330	10.606	50.133	43.446	152.92	387.72	0.10899	73.895	0.091447	0.0018942	3.6959	0.27057	16.927	18.315	76.856	44.313	145.13	200.90	1.1788	17.021	0.028270
288.55	51.368	18.580	0.053822	10.339	10.615	50.165	43.459	153.31	386.97	0.10950	73.776	0.091356	0.0018829	3.7056	0.26986	16.924	18.310	76.831	44.351	145.74	200.83	1.1775	17.036	0.028340
288.63	51.457	18.565	0.053864	10.348	10.625	50.197	43.472	153.69	386.22	0.11002	73.658	0.091265	0.0018717	3.7153	0.26915	16.920	18.305	76.806	44.390	146.34	200.77	1.1762	17.051	0.028409
288.70	51.547	18.551	0.053906	10.357	10.634	50.228	43.485	154.08	385.48	0.11053	73.540	0.091174	0.0018605	3.7251	0.26845	16.916	18.300	76.781	44.429	146.96	200.70	1.1749	17.067	0.028479
288.77	51.636	18.536	0.053948	10.365	10.644	50.260	43.498	154.48	384.73	0.11105	73.421	0.091083	0.0018493	3.7349	0.26774	16.913	18.295	76.756	44.467	147.57	200.63	1.1736	17.082	0.028549
288.84	51.726	18.522	0.053990	10.374	10.654	50.292	43.511	154.87	383.99	0.11157	73.303	0.090993	0.0018382	3.7447	0.26704	16.909	18.290	76.731	44.506	148.20	200.56	1.1723	17.098	0.028620
288.92	51.816	18.507	0.054033	10.383	10.663	50.324	43.524	155.27	383.24	0.11209	73.186	0.090902	0.0018271	3.7546	0.26634	16.905	18.286	76.706	44.546	148.82	200.49	1.1709	17.113	0.028691
288.99	51.905	18.493	0.054075	10.392	10.673	50.355	43.537	155.68	382.50	0.11262	73.068	0.090812	0.0018160	3.7644	0.26564	16.902	18.281	76.681	44.585	149.46	200.43	1.1696	17.129	0.028762
289.06	51.995	18.478	0.054118	10.401	10.683	50.387	43.551	156.08	381.75	0.11315	72.950	0.090722	0.0018050	3.7743	0.26495	16.898	18.276	76.655	44.624	150.10	200.36	1.1683	17.145	0.028834
289.13	52.085	18.464	0.054161	10.410	10.692	50.419	43.564	156.49	381.01	0.11368	72.833	0.090632	0.0017940	3.7842	0.26425	16.894	18.271	76.630	44.664	150.74	200.29	1.1670	17.160	0.028907
289.20	52.174	18.449	0.054204	10.419	10.702	50.450	43.578	156.91	380.27	0.11421	72.715	0.090542	0.0017830	3.7942	0.26356	16.891	18.266	76.605	44.703	151.39	200.22	1.1657	17.176	0.028979
289.27	52.264	18.434	0.054247	10.428	10.712	50.482	43.591	157.32	379.52	0.11475	72.598	0.090452	0.0017720	3.8042	0.26287	16.887	18.261	76.580	44.743	152.04	200.15	1.1644	17.192	0.029052
289.35	52.353	18.420	0.054290	10.437	10.721	50.514	43.605	157.74	378.78	0.11529	72.481	0.090363	0.0017611	3.8142	0.26218	16.883	18.256	76.554	44.783	152.70	200.08	1.1630	17.208	0.029126
289.42	52.443	18.405	0.054333	10.446	10.731	50.545	43.619	158.16	378.04	0.11583	72.364	0.090273	0.0017502	3.8242	0.26149	16.880	18.251	76.529	44.823	153.37	200.02	1.1617	17.224	0.029200
289.49	52.533	18.390	0.054377	10.455	10.740	50.577	43.632	158.59	377.29	0.11637	72.247	0.090184	0.0017393	3.8342	0.26081	16.876	18.246	76.503	44.863	154.04	199.95	1.1604	17.240	0.029274
289.56	52.622	18.376	0.054420	10.464	10.750	50.609	43.646	159.02	376.55	0.11692	72.130	0.090095	0.0017285	3.8443	0.26012	16.872	18.241	76.478	44.903	154.72	199.88	1.1591	17.256	0.029349
289.63	52.712	18.361	0.054464	10.473	10.760	50.640	43.660	159.45	375.81	0.11747	72.013	0.090006	0.0017177	3.8544	0.25944	16.868	18.236	76.452	44.943	155.41	199.81	1.1578	17.272	0.029424
289.70	52.802	18.346	0.054508	10.482	10.770	50.672	43.674	159.89	375.06	0.11802	71.897	0.089917	0.0017069	3.8646	0.25876	16.864	18.231	76.427	44.984	156.10	199.74	1.1564	17.288	0.029499
289.77	52.891	18.331	0.054552	10.491	10.779	50.704	43.688	160.33	374.32	0.11858	71.780	0.089828	0.0016962	3.8747	0.25808	16.861	18.226	76.401	45.024	156.79	199.67	1.1551	17.305	0.029575
289.84	52.981	18.316	0.054596	10.500	10.789	50.736	43.702	160.77	373.58	0.11913	71.664	0.089740	0.0016854	3.8849	0.25741	16.857	18.221	76.376	45.065	157.50	199.60	1.1538	17.321	0.029652
289.92	53.070	18.302	0.054640	10.509	10.799	50.767	43.717	161.22	372.83	0.11970	71.547	0.089651	0.0016747	3.8951	0.25673	16.853	18.215	76.350	45.106	158.20	199.53	1.1524	17.337	0.029729
289.99	53.160	18.287	0.054685	10.518	10.808	50.799	43.731	161.67	372.09	0.12026	71.431	0.089563	0.0016641	3.9054	0.25606	16.849	18.210	76.324	45.147	158.92	199.46	1.1511	17.354	0.029806
290.06	53.250	18.272	0.054729	10.526	10.818	50.831	43.745	162.13	371.35	0.12082	71.315	0.089475	0.0016534	3.9157	0.25538	16.845	18.205	76.299	45.188	159.64	199.39	1.1498	17.370	0.029884
290.13	53.339	18.257	0.054774	10.535	10.828	50.862	43.760	162.59	370.60	0.12139	71.199	0.089387	0.0016428	3.9260	0.25471	16.841	18.200	76.273	45.229	160.37	199.32	1.1484	17.387	0.029962
290.20	53.429	18.242	0.054819	10.544	10.837	50.894	43.775	163.05	369.86	0.12196	71.083	0.089299	0.0016323	3.9363	0.25404	16.837	18.195	76.247	45.270	161.10	199.25	1.1471	17.403	0.030041
290.27	53.519	18.227	0.054864	10.553	10.847	50.926	43.789	163.52	369.12	0.12254	70.967	0.089212	0.0016217	3.9467	0.25338	16.833	18.189	76.221	45.312	161.85	199.18	1.1458	17.420	0.030120
290.34	53.608	18.212	0.054909	10.562	10.857	50.958	43.804	163.99	368.38	0.12312	70.851	0.089124	0.0016112	3.9571	0.25271	16.829	18.184	76.195	45.353	162.59	199.11	1.1444	17.437	0.030200
290.41	53.698	18.197	0.054954	10.571	10.866	50.989	43.819	164.47	367.63	0.12370	70.735	0.089037	0.0016007	3.9675	0.25205	16.826	18.179	76.169	45.395	163.35	199.04	1.1431	17.454	0.030280
290.48	53.787	18.182	0.054999	10.580	10.876	51.021	43.834	164.95	366.89	0.12428	70.620	0.088950	0.0015902	3.9779	0.25139	16.822	18.174	76.143	45.437	164.11	198.97	1.1417	17.471	0.030360
290.55	53.877	18.167	0.055045	10.589	10.886	51.053	43.849	165.43	366.15	0.12487	70.504	0.088863	0.0015798	3.9884	0.25073	16.818	18.168	76.117	45.479	164.88	198.90	1.1404	17.488	0.030441
290.62	53.967	18.152	0.055091	10.598	10.896	51.085	43.864	165.92	365.40	0.12546	70.389	0.088776	0.0015694	3.9989	0.25007	16.814	18.163	76.091	45.521	165.66	198.83	1.1391	17.505	0.030523
290.69	54.056	18.137	0.055137	10.607	10.905	51.116	43.879	166.41	364.66	0.12605	70.273	0.088689	0.0015590	4.0095	0.24941	16.809	18.158	76.065	45.564	166.44	198.76	1.1377	17.522	0.030605
290.76	54.146	18.122	0.055183	10.616	10.915	51.148	43.895	166.91	363.92	0.12664	70.158	0.088602	0.0015487	4.0201	0.24875	16.805	18.152	76.039	45.606	167.23	198.68	1.1364	17.539	0.030687
290.83	54.235	18.106	0.055229	10.625	10.925	51.180	43.910	167.41	363.17	0.12724	70.043	0.088516	0.0015384	4.0307	0.24810	16.801	18.147	76.013	45.649	168.03	198.61	1.1350	17.556	0.030770
290.90	54.325	18.091	0.055275	10.634	10.935	51.212	43.926	167.91	362.43	0.12785	69.927	0.088430	0.0015281	4.0413	0.24744	16.797	18.142	75.987	45.691	168.84	198.54	1.1337	17.573	0.030854
290.97	54.415	18.076	0.055322	10.643	10.944	51.244	43.941	168.42	361.69	0.12845	69.812	0.088344	0.0015178	4.0520	0.24679	16.793	18.136	75.961	45.734	169.65	198.47	1.1323	17.591	0.030938
291.04	54.504	18.061	0.055368	10.652	10.954	51.275	43.957	168.94	360.94	0.12906	69.697	0.088258	0.0015076	4.0627	0.24614	16.789	18.131	75.934	45.777	170.48	198.40	1.1309	17.608	0.031023
291.11	54.594	18.046	0.055415	10.661	10.964	51.307	43.973	169.46	360.20	0.12967	69.582	0.088172	0.0014974	4.0734	0.24549	16.785	18.125	75.908	45.821	171.31	198.33	1.1296	17.625	0.031108
291.18	54.684	18.030	0.055462	10.670	10.974	51.339	43.989	169.98	359.45	0.13028	69.467	0.088087	0.0014872	4.0842	0.24485	16.781	18.120	75.881	45.864	172.14	198.25	1.1282	17.643	0.031193
291.24	54.773	18.015	0.055509	10.679	10.983	51.371	44.005	170.51	358.71	0.13090	69.353	0.088001	0.0014770	4.0950	0.24420	16.777	18.114	75.855	45.908	172.99	198.18	1.1269	17.661	0.031280
291.31	54.863	18.000	0.055556	10.688	10.993	51.403	44.021	171.05	357.97	0.13152	69.238	0.087916	0.0014669	4.1058	0.24356	16.772	18.109	75.829	45.951	173.85	198.11	1.1255	17.678	0.031366
291.38	54.952	17.984	0.055604	10.697	11.003	51.435	44.038	171.58	357.22	0.13215	69.123	0.087831	0.0014568	4.1167	0.24291	16.768	18.103	75.802	45.995	174.71	198.04	1.1241	17.696	0.031454
291.45	55.042	17.969	0.055651	10.706	11.013	51.467	44.054	172.13	356.48	0.13278	69.008	0.087746	0.0014468	4.1276	0.24227	16.764	18.098	75.775	46.039	175.58	197.97	1.1228	17.714	0.031541
291.52	55.132	17.954	0.055699	10.715	11.023	51.499	44.071	172.68	355.73	0.13341	68.894	0.087661	0.0014367	4.1385	0.24163	16.760	18.092	75.749	46.083	176.46	197.89	1.1214	17.732	0.031630
291.59	55.221	17.938	0.055747	10.724	11.032	51.530	44.087	173.23	354.98	0.13404	68.779	0.087577	0.0014267	4.1495	0.24099	16.755	18.086	75.722	46.128	177.35	197.82	1.1200	17.750	0.031719
291.66	55.311	17.923	0.055795	10.734	11.042	51.562	44.104	173.79	354.24	0.13468	68.665	0.087493	0.0014167	4.1605	0.24036	16.751	18.081	75.695	46.172	178.25	197.75	1.1186	17.768	0.031808
291.73	55.401	17.907	0.055844	10.743	11.052	51.594	44.121	174.35	353.49	0.13532	68.551	0.087409	0.0014068	4.1715	0.23972	16.747	18.075	75.668	46.217	179.16	197.67	1.1173	17.786	0.031898
291.79	55.490	17.892	0.055892	10.752	11.062	51.626	44.138	174.92	352.75	0.13597	68.436	0.087325	0.0013969	4.1826	0.23909	16.743	18.069	75.642	46.262	180.07	197.60	1.1159	17.804	0.031989
291.86	55.580	17.876	0.055941	10.761	11.072	51.658	44.155	175.50	352.00	0.13662	68.322	0.087241	0.0013870	4.1937	0.23845	16.738	18.064	75.615	46.307	181.00	197.53	1.1145	17.823	0.032080
291.93	55.669	17.860	0.055990	10.770	11.081	51.690	44.173	176.08	351.25	0.13727	68.208	0.087157	0.0013771	4.2048	0.23782	16.734	18.058	75.588	46.352	181.93	197.45	1.1131	17.841	0.032172
292.00	55.759	17.845	0.056039	10.779	11.091	51.722	44.190	176.67	350.50	0.13792	68.093	0.087074	0.0013673	4.2160	0.23719	16.730	18.052	75.561	46.397	182.88	197.38	1.1117	17.859	0.032264
292.07	55.849	17.829	0.056088	10.788	11.101	51.754	44.208	177.26	349.75	0.13858	67.979	0.086991	0.0013574	4.2272	0.23656	16.725	18.046	75.534	46.443	183.83	197.31	1.1103	17.878	0.032357
292.13	55.938	17.814	0.056137	10.797	11.111	51.786	44.225	177.86	349.01	0.13925	67.865	0.086908	0.0013477	4.2384	0.23594	16.721	18.041	75.507	46.489	184.80	197.23	1.1090	17.896	0.032451
292.20	56.028	17.798	0.056187	10.806	11.121	51.818	44.243	178.46	348.26	0.13992	67.751	0.086825	0.0013379	4.2497	0.23531	16.716	18.035	75.479	46.535	185.77	197.16	1.1076	17.915	0.032545
292.27	56.118	17.782	0.056236	10.815	11.131	51.850	44.261	179.07	347.51	0.14059	67.637	0.086743	0.0013282	4.2610	0.23469	16.712	18.029	75.452	46.581	186.76	197.08	1.1062	17.934	0.032640
292.34	56.207	17.766	0.056286	10.824	11.141	51.882	44.279	179.68	346.76	0.14126	67.523	0.086660	0.0013185	4.2724	0.23406	16.707	18.023	75.425	46.627	187.75	197.01	1.1048	17.953	0.032736
292.41	56.297	17.751	0.056336	10.833	11.151	51.915	44.298	180.31	346.01	0.14194	67.409	0.086578	0.0013088	4.2838	0.23344	16.703	18.017	75.398	46.673	188.76	196.93	1.1034	17.972	0.032832
292.47	56.386	17.735	0.056387	10.842	11.160	51.947	44.316	180.93	345.26	0.14262	67.295	0.086496	0.0012992	4.2952	0.23282	16.698	18.011	75.370	46.720	189.78	196.86	1.1020	17.991	0.032929
292.54	56.476	17.719	0.056437	10.852	11.170	51.979	44.335	181.57	344.51	0.14331	67.181	0.086415	0.0012895	4.3067	0.23220	16.694	18.005	75.343	46.767	190.80	196.78	1.1006	18.010	0.033026
292.61	56.566	17.703	0.056488	10.861	11.180	52.011	44.354	182.21	343.75	0.14400	67.067	0.086333	0.0012799	4.3182	0.23158	16.689	17.999	75.315	46.814	191.84	196.71	1.0992	18.029	0.033124
292.68	56.655	17.687	0.056539	10.870	11.190	52.043	44.373	182.86	343.00	0.14469	66.954	0.086252	0.0012704	4.3297	0.23096	16.685	17.993	75.288	46.861	192.89	196.63	1.0977	18.048	0.033223
292.74	56.745	17.671	0.056590	10.879	11.200	52.075	44.392	183.51	342.25	0.14539	66.840	0.086171	0.0012608	4.3413	0.23035	16.680	17.987	75.260	46.909	193.96	196.56	1.0963	18.068	0.033322
292.81	56.835	17.655	0.056641	10.888	11.210	52.108	44.411	184.17	341.49	0.14609	66.726	0.086090	0.0012513	4.3529	0.22973	16.676	17.981	75.232	46.956	195.03	196.48	1.0949	18.087	0.033423
292.88	56.924	17.639	0.056693	10.897	11.220	52.140	44.431	184.84	340.74	0.14680	66.612	0.086010	0.0012419	4.3646	0.22912	16.671	17.975	75.205	47.004	196.11	196.41	1.0935	18.107	0.033523
292.94	57.014	17.623	0.056744	10.906	11.230	52.172	44.450	185.51	339.98	0.14751	66.499	0.085929	0.0012324	4.3763	0.22850	16.666	17.969	75.177	47.052	197.21	196.33	1.0921	18.126	0.033625
293.01	57.103	17.607	0.056796	10.916	11.240	52.204	44.470	186.20	339.23	0.14823	66.385	0.085849	0.0012230	4.3880	0.22789	16.662	17.963	75.149	47.100	198.32	196.25	1.0906	18.146	0.033727
293.08	57.193	17.591	0.056848	10.925	11.250	52.237	44.490	186.88	338.47	0.14895	66.271	0.085769	0.0012136	4.3998	0.22728	16.657	17.957	75.121	47.149	199.44	196.18	1.0892	18.166	0.033830
293.14	57.283	17.574	0.056901	10.934	11.260	52.269	44.510	187.58	337.72	0.14967	66.158	0.085690	0.0012042	4.4116	0.22667	16.652	17.951	75.093	47.198	200.58	196.10	1.0878	18.186	0.033934
293.21	57.372	17.558	0.056953	10.943	11.270	52.301	44.531	188.28	336.96	0.15040	66.044	0.085611	0.0011949	4.4235	0.22606	16.647	17.944	75.065	47.246	201.73	196.02	1.0864	18.206	0.034038
293.28	57.462	17.542	0.057006	10.952	11.280	52.334	44.551	189.00	336.20	0.15113	65.930	0.085531	0.0011856	4.4354	0.22546	16.643	17.938	75.037	47.296	202.89	195.95	1.0849	18.226	0.034144
293.34	57.551	17.526	0.057059	10.961	11.290	52.366	44.572	189.71	335.44	0.15187	65.817	0.085453	0.0011763	4.4474	0.22485	16.638	17.932	75.009	47.345	204.06	195.87	1.0835	18.246	0.034249
293.41	57.641	17.509	0.057112	10.971	11.300	52.398	44.593	190.44	334.68	0.15261	65.703	0.085374	0.0011670	4.4594	0.22425	16.633	17.926	74.981	47.394	205.25	195.79	1.0820	18.266	0.034356
293.48	57.731	17.493	0.057165	10.980	11.310	52.431	44.614	191.18	333.92	0.15336	65.590	0.085296	0.0011578	4.4714	0.22364	16.628	17.919	74.952	47.444	206.45	195.71	1.0806	18.287	0.034464
293.54	57.820	17.477	0.057219	10.989	11.320	52.463	44.635	191.92	333.16	0.15411	65.476	0.085218	0.0011486	4.4835	0.22304	16.623	17.913	74.924	47.494	207.67	195.64	1.0792	18.307	0.034572
293.61	57.910	17.460	0.057273	10.998	11.330	52.496	44.657	192.67	332.40	0.15486	65.362	0.085140	0.0011394	4.4956	0.22244	16.619	17.907	74.895	47.544	208.90	195.56	1.0777	18.328	0.034681
293.67	58.000	17.444	0.057327	11.008	11.340	52.528	44.679	193.43	331.63	0.15562	65.249	0.085063	0.0011303	4.5078	0.22184	16.614	17.900	74.867	47.595	210.14	195.48	1.0762	18.348	0.034791
293.74	58.089	17.427	0.057381	11.017	11.350	52.561	44.701	194.20	330.87	0.15639	65.135	0.084985	0.0011211	4.5200	0.22124	16.609	17.894	74.838	47.646	211.40	195.40	1.0748	18.369	0.034901
293.81	58.179	17.411	0.057436	11.026	11.360	52.594	44.723	194.98	330.11	0.15715	65.022	0.084909	0.0011121	4.5322	0.22064	16.604	17.887	74.810	47.697	212.67	195.32	1.0733	18.390	0.035013
293.87	58.268	17.394	0.057491	11.035	11.370	52.626	44.745	195.76	329.34	0.15793	64.908	0.084832	0.0011030	4.5445	0.22005	16.599	17.881	74.781	47.748	213.96	195.24	1.0719	18.411	0.035125
293.94	58.358	17.377	0.057546	11.045	11.380	52.659	44.768	196.56	328.57	0.15871	64.794	0.084756	0.0010939	4.5569	0.21945	16.594	17.874	74.752	47.799	215.27	195.16	1.0704	18.432	0.035238
294.00	58.448	17.361	0.057601	11.054	11.391	52.691	44.791	197.36	327.81	0.15949	64.681	0.084680	0.0010849	4.5693	0.21885	16.589	17.868	74.723	47.851	216.59	195.08	1.0689	18.453	0.035352
294.07	58.537	17.344	0.057656	11.063	11.401	52.724	44.814	198.17	327.04	0.16028	64.567	0.084604	0.0010760	4.5817	0.21826	16.584	17.861	74.694	47.903	217.92	195.00	1.0675	18.475	0.035467
294.13	58.627	17.327	0.057712	11.072	11.411	52.757	44.837	199.00	326.27	0.16108	64.454	0.084529	0.0010670	4.5942	0.21767	16.579	17.855	74.665	47.955	219.28	194.92	1.0660	18.496	0.035583
294.20	58.717	17.311	0.057768	11.082	11.421	52.790	44.861	199.83	325.50	0.16188	64.340	0.084454	0.0010581	4.6067	0.21707	16.574	17.848	74.636	48.007	220.65	194.84	1.0645	18.518	0.035700
294.27	58.806	17.294	0.057824	11.091	11.431	52.822	44.885	200.67	324.73	0.16268	64.226	0.084379	0.0010492	4.6193	0.21648	16.568	17.842	74.607	48.060	222.03	194.76	1.0630	18.539	0.035817
294.33	58.896	17.277	0.057881	11.100	11.441	52.855	44.909	201.53	323.96	0.16349	64.113	0.084305	0.0010403	4.6319	0.21589	16.563	17.835	74.578	48.113	223.44	194.68	1.0615	18.561	0.035935
294.40	58.985	17.260	0.057938	11.110	11.452	52.888	44.933	202.39	323.18	0.16431	63.999	0.084231	0.0010314	4.6446	0.21530	16.558	17.828	74.548	48.166	224.86	194.60	1.0600	18.583	0.036055
294.46	59.075	17.243	0.057995	11.119	11.462	52.921	44.958	203.26	322.41	0.16513	63.885	0.084157	0.0010226	4.6573	0.21471	16.553	17.821	74.519	48.220	226.30	194.52	1.0585	18.605	0.036175
294.53	59.165	17.226	0.058052	11.128	11.472	52.954	44.983	204.15	321.63	0.16595	63.771	0.084084	0.0010138	4.6701	0.21413	16.548	17.815	74.489	48.274	227.76	194.44	1.0570	18.627	0.036296
294.59	59.254	17.209	0.058109	11.138	11.482	52.987	45.008	205.04	320.86	0.16678	63.658	0.084011	0.0010051	4.6829	0.21354	16.543	17.808	74.460	48.328	229.23	194.36	1.0555	18.649	0.036418
294.66	59.344	17.192	0.058167	11.147	11.492	53.020	45.034	205.95	320.08	0.16762	63.544	0.083938	0.00099633	4.6958	0.21296	16.537	17.801	74.430	48.382	230.73	194.28	1.0540	18.671	0.036542
294.72	59.434	17.175	0.058225	11.157	11.503	53.053	45.060	206.87	319.30	0.16846	63.430	0.083866	0.00098762	4.7088	0.21237	16.532	17.794	74.400	48.437	232.25	194.19	1.0525	18.694	0.036666
294.79	59.523	17.157	0.058284	11.166	11.513	53.086	45.086	207.80	318.52	0.16931	63.316	0.083794	0.00097894	4.7217	0.21179	16.527	17.787	74.370	48.492	233.78	194.11	1.0510	18.716	0.036791
294.85	59.613	17.140	0.058342	11.175	11.523	53.119	45.112	208.74	317.74	0.17017	63.202	0.083723	0.00097029	4.7348	0.21120	16.521	17.780	74.341	48.547	235.34	194.03	1.0495	18.739	0.036917
294.91	59.702	17.123	0.058401	11.185	11.534	53.152	45.139	209.69	316.95	0.17103	63.088	0.083652	0.00096166	4.7479	0.21062	16.516	17.773	74.311	48.602	236.91	193.95	1.0480	18.762	0.037044
294.98	59.792	17.106	0.058460	11.194	11.544	53.185	45.166	210.66	316.17	0.17189	62.974	0.083581	0.00095306	4.7610	0.21004	16.511	17.766	74.280	48.658	238.51	193.86	1.0464	18.785	0.037172
295.04	59.882	17.088	0.058520	11.204	11.554	53.219	45.193	211.63	315.39	0.17276	62.860	0.083511	0.00094449	4.7742	0.20946	16.505	17.759	74.250	48.714	240.13	193.78	1.0449	18.808	0.037302
295.11	59.971	17.071	0.058580	11.213	11.565	53.252	45.220	212.62	314.60	0.17364	62.746	0.083441	0.00093594	4.7875	0.20888	16.500	17.752	74.220	48.771	241.77	193.70	1.0434	18.831	0.037432
295.17	60.061	17.053	0.058640	11.223	11.575	53.285	45.248	213.63	313.81	0.17453	62.632	0.083371	0.00092742	4.8008	0.20830	16.494	17.745	74.190	48.828	243.43	193.61	1.0418	18.854	0.037563
295.24	60.151	17.036	0.058700	11.232	11.585	53.319	45.277	214.65	313.02	0.17542	62.517	0.083303	0.00091893	4.8141	0.20772	16.489	17.738	74.159	48.885	245.12	193.53	1.0403	18.878	0.037696
295.30	60.240	17.018	0.058761	11.242	11.596	53.352	45.305	215.68	312.23	0.17631	62.403	0.083234	0.00091047	4.8275	0.20714	16.483	17.731	74.129	48.942	246.82	193.44	1.0387	18.901	0.037830
295.36	60.330	17.000	0.058822	11.251	11.606	53.385	45.334	216.72	311.44	0.17722	62.289	0.083166	0.00090203	4.8410	0.20657	16.478	17.724	74.098	49.000	248.56	193.36	1.0372	18.925	0.037964
295.43	60.419	16.983	0.058883	11.261	11.616	53.419	45.363	217.78	310.65	0.17813	62.174	0.083098	0.00089363	4.8546	0.20599	16.472	17.717	74.067	49.058	250.31	193.27	1.0356	18.949	0.038100
295.49	60.509	16.965	0.058945	11.270	11.627	53.453	45.393	218.86	309.85	0.17904	62.060	0.083031	0.00088525	4.8681	0.20542	16.466	17.709	74.036	49.116	252.09	193.19	1.0341	18.973	0.038237
295.56	60.599	16.947	0.059007	11.280	11.637	53.486	45.423	219.94	309.06	0.17996	61.945	0.082965	0.00087689	4.8818	0.20484	16.461	17.702	74.005	49.175	253.90	193.10	1.0325	18.997	0.038375
295.62	60.688	16.929	0.059069	11.289	11.648	53.520	45.453	221.05	308.26	0.18089	61.831	0.082898	0.00086857	4.8955	0.20427	16.455	17.695	73.974	49.234	255.73	193.01	1.0309	19.021	0.038515
295.68	60.778	16.911	0.059131	11.299	11.658	53.553	45.484	222.17	307.46	0.18183	61.716	0.082833	0.00086027	4.9093	0.20370	16.449	17.687	73.943	49.293	257.59	192.93	1.0294	19.046	0.038656
295.75	60.867	16.894	0.059194	11.309	11.669	53.587	45.515	223.30	306.66	0.18277	61.601	0.082768	0.00085200	4.9231	0.20312	16.443	17.680	73.912	49.353	259.47	192.84	1.0278	19.070	0.038798
295.81	60.957	16.875	0.059258	11.318	11.679	53.621	45.547	224.45	305.86	0.18372	61.486	0.082703	0.00084375	4.9370	0.20255	16.438	17.672	73.881	49.413	261.38	192.75	1.0262	19.095	0.038941
295.87	61.047	16.857	0.059321	11.328	11.690	53.655	45.579	225.62	305.06	0.18468	61.371	0.082639	0.00083554	4.9510	0.20198	16.432	17.665	73.849	49.474	263.32	192.66	1.0246	19.120	0.039085
295.94	61.136	16.839	0.059385	11.337	11.700	53.689	45.611	226.81	304.25	0.18564	61.256	0.082575	0.00082735	4.9650	0.20141	16.426	17.657	73.818	49.535	265.29	192.58	1.0230	19.145	0.039231
296.00	61.226	16.821	0.059449	11.347	11.711	53.723	45.644	228.01	303.45	0.18661	61.141	0.082513	0.00081919	4.9791	0.20084	16.420	17.650	73.786	49.596	267.29	192.49	1.0214	19.170	0.039378
296.06	61.316	16.803	0.059514	11.357	11.722	53.757	45.677	229.23	302.64	0.18759	61.026	0.082450	0.00081106	4.9932	0.20027	16.414	17.642	73.754	49.657	269.32	192.40	1.0198	19.195	0.039526
296.13	61.405	16.784	0.059579	11.366	11.732	53.791	45.710	230.47	301.83	0.18858	60.911	0.082388	0.00080295	5.0074	0.19970	16.408	17.635	73.722	49.719	271.37	192.31	1.0182	19.221	0.039676
296.19	61.495	16.766	0.059644	11.376	11.743	53.825	45.744	231.72	301.02	0.18957	60.795	0.082327	0.00079487	5.0217	0.19914	16.402	17.627	73.690	49.782	273.46	192.22	1.0166	19.246	0.039827
296.25	61.584	16.748	0.059710	11.386	11.754	53.859	45.779	233.00	300.21	0.19057	60.680	0.082267	0.00078682	5.0361	0.19857	16.396	17.619	73.658	49.845	275.58	192.13	1.0150	19.272	0.039980
296.31	61.674	16.729	0.059776	11.396	11.764	53.893	45.814	234.30	299.39	0.19158	60.564	0.082207	0.00077880	5.0505	0.19800	16.390	17.611	73.626	49.908	277.74	192.04	1.0133	19.298	0.040134
296.38	61.764	16.711	0.059842	11.405	11.775	53.927	45.849	235.61	298.57	0.19260	60.448	0.082147	0.00077081	5.0650	0.19743	16.384	17.604	73.594	49.972	279.92	191.95	1.0117	19.324	0.040289
296.44	61.853	16.692	0.059909	11.415	11.786	53.962	45.885	236.95	297.76	0.19362	60.332	0.082089	0.00076284	5.0795	0.19687	16.378	17.596	73.561	50.036	282.14	191.86	1.0101	19.350	0.040446
296.50	61.943	16.673	0.059976	11.425	11.796	53.996	45.921	238.30	296.94	0.19465	60.216	0.082030	0.00075490	5.0941	0.19630	16.372	17.588	73.529	50.100	284.40	191.76	1.0084	19.377	0.040604
296.56	62.033	16.654	0.060044	11.435	11.807	54.031	45.958	239.68	296.12	0.19569	60.100	0.081973	0.00074699	5.1088	0.19574	16.366	17.580	73.496	50.165	286.69	191.67	1.0068	19.403	0.040764
296.63	62.122	16.636	0.060112	11.444	11.818	54.065	45.995	241.08	295.29	0.19674	59.984	0.081916	0.00073911	5.1236	0.19518	16.359	17.572	73.463	50.230	289.02	191.58	1.0051	19.430	0.040926
296.69	62.212	16.617	0.060180	11.454	11.829	54.100	46.033	242.50	294.47	0.19780	59.867	0.081861	0.00073125	5.1384	0.19461	16.353	17.564	73.430	50.296	291.38	191.49	1.0035	19.457	0.041089
296.75	62.301	16.598	0.060249	11.464	11.840	54.134	46.071	243.95	293.64	0.19886	59.751	0.081805	0.00072342	5.1534	0.19405	16.347	17.556	73.397	50.362	293.79	191.39	1.0018	19.484	0.041253
296.81	62.391	16.579	0.060318	11.474	11.850	54.169	46.110	245.42	292.81	0.19993	59.634	0.081751	0.00071562	5.1683	0.19349	16.340	17.548	73.364	50.429	296.23	191.30	1.0002	19.512	0.041420
296.88	62.481	16.560	0.060388	11.484	11.861	54.204	46.150	246.91	291.98	0.20102	59.517	0.081697	0.00070785	5.1834	0.19292	16.334	17.540	73.331	50.496	298.71	191.20	0.99848	19.539	0.041588
296.94	62.570	16.540	0.060458	11.494	11.872	54.239	46.189	248.43	291.15	0.20211	59.400	0.081644	0.00070010	5.1986	0.19236	16.328	17.531	73.297	50.564	301.24	191.11	0.99679	19.567	0.041757
297.00	62.660	16.521	0.060529	11.504	11.883	54.274	46.230	249.97	290.31	0.20321	59.283	0.081592	0.00069239	5.2138	0.19180	16.321	17.523	73.264	50.632	303.80	191.01	0.99511	19.595	0.041928
297.06	62.750	16.502	0.060600	11.514	11.894	54.309	46.271	251.54	289.48	0.20431	59.166	0.081541	0.00068470	5.2291	0.19124	16.315	17.515	73.230	50.701	306.41	190.92	0.99341	19.623	0.042102
297.12	62.839	16.482	0.060671	11.524	11.905	54.344	46.313	253.14	288.64	0.20543	59.048	0.081490	0.00067704	5.2445	0.19068	16.308	17.506	73.196	50.770	309.07	190.82	0.99171	19.651	0.042276
297.19	62.929	16.463	0.060743	11.534	11.916	54.379	46.355	254.76	287.80	0.20656	58.930	0.081441	0.00066941	5.2599	0.19012	16.302	17.498	73.162	50.840	311.77	190.72	0.99001	19.679	0.042453
297.25	63.018	16.443	0.060815	11.544	11.927	54.414	46.398	256.41	286.96	0.20769	58.813	0.081392	0.00066180	5.2755	0.18956	16.295	17.490	73.128	50.910	314.51	190.63	0.98830	19.708	0.042632
297.31	63.108	16.424	0.060888	11.554	11.938	54.450	46.441	258.09	286.11	0.20884	58.695	0.081344	0.00065423	5.2911	0.18900	16.288	17.481	73.094	50.980	317.31	190.53	0.98658	19.737	0.042812
297.37	63.198	16.404	0.060961	11.564	11.949	54.485	46.485	259.80	285.27	0.20999	58.576	0.081297	0.00064668	5.3068	0.18844	16.282	17.473	73.059	51.052	320.15	190.43	0.98485	19.766	0.042994
297.43	63.287	16.384	0.061035	11.574	11.960	54.521	46.530	261.54	284.42	0.21116	58.458	0.081251	0.00063916	5.3226	0.18788	16.275	17.464	73.025	51.123	323.05	190.33	0.98312	19.795	0.043179
297.49	63.377	16.364	0.061109	11.584	11.971	54.556	46.575	263.31	283.57	0.21233	58.339	0.081206	0.00063167	5.3385	0.18732	16.268	17.455	72.990	51.196	325.99	190.23	0.98138	19.825	0.043365
297.55	63.467	16.344	0.061184	11.594	11.983	54.592	46.621	265.12	282.71	0.21352	58.221	0.081162	0.00062420	5.3544	0.18676	16.261	17.447	72.955	51.269	328.99	190.13	0.97964	19.854	0.043553
297.62	63.556	16.324	0.061259	11.604	11.994	54.628	46.668	266.95	281.86	0.21471	58.102	0.081119	0.00061677	5.3705	0.18620	16.254	17.438	72.920	51.342	332.04	190.03	0.97789	19.884	0.043743
297.68	63.646	16.304	0.061335	11.615	12.005	54.664	46.715	268.82	281.00	0.21592	57.982	0.081077	0.00060936	5.3866	0.18564	16.248	17.429	72.885	51.416	335.15	189.93	0.97613	19.914	0.043936
297.74	63.735	16.284	0.061411	11.625	12.016	54.699	46.763	270.73	280.14	0.21713	57.863	0.081036	0.00060198	5.4029	0.18509	16.241	17.420	72.850	51.491	338.32	189.83	0.97436	19.945	0.044131
297.80	63.825	16.263	0.061488	11.635	12.027	54.735	46.812	272.67	279.28	0.21836	57.743	0.080996	0.00059464	5.4192	0.18453	16.234	17.411	72.814	51.566	341.55	189.72	0.97259	19.975	0.044327
297.86	63.915	16.243	0.061565	11.645	12.039	54.772	46.861	274.65	278.42	0.21960	57.623	0.080958	0.00058731	5.4356	0.18397	16.227	17.402	72.779	51.642	344.83	189.62	0.97081	20.006	0.044526
297.92	64.004	16.222	0.061643	11.656	12.050	54.808	46.912	276.66	277.55	0.22084	57.503	0.080920	0.00058002	5.4522	0.18341	16.219	17.393	72.743	51.718	348.18	189.52	0.96902	20.037	0.044728
297.98	64.094	16.202	0.061721	11.666	12.061	54.844	46.963	278.72	276.68	0.22210	57.383	0.080883	0.00057276	5.4688	0.18286	16.212	17.384	72.707	51.796	351.60	189.41	0.96722	20.069	0.044931
298.04	64.183	16.181	0.061800	11.676	12.073	54.881	47.015	280.81	275.81	0.22337	57.262	0.080848	0.00056552	5.4855	0.18230	16.205	17.375	72.671	51.873	355.08	189.31	0.96542	20.100	0.045138
298.10	64.273	16.160	0.061880	11.687	12.084	54.917	47.067	282.95	274.94	0.22465	57.141	0.080814	0.00055832	5.5023	0.18174	16.198	17.366	72.634	51.952	358.63	189.20	0.96361	20.132	0.045346
298.16	64.363	16.139	0.061960	11.697	12.096	54.954	47.121	285.12	274.06	0.22594	57.020	0.080781	0.00055114	5.5193	0.18118	16.190	17.357	72.598	52.031	362.25	189.09	0.96179	20.164	0.045557
298.22	64.452	16.118	0.062041	11.707	12.107	54.990	47.175	287.35	273.19	0.22725	56.899	0.080750	0.00054399	5.5363	0.18063	16.183	17.347	72.561	52.111	365.94	188.98	0.95996	20.196	0.045771
298.28	64.542	16.097	0.062122	11.718	12.119	55.027	47.230	289.61	272.31	0.22856	56.777	0.080719	0.00053687	5.5534	0.18007	16.176	17.338	72.524	52.191	369.71	188.88	0.95812	20.229	0.045987
298.35	64.632	16.076	0.062204	11.728	12.130	55.064	47.286	291.93	271.42	0.22989	56.655	0.080691	0.00052978	5.5707	0.17951	16.168	17.329	72.487	52.273	373.55	188.77	0.95628	20.262	0.046206
298.41	64.721	16.055	0.062287	11.739	12.142	55.101	47.343	294.29	270.54	0.23123	56.533	0.080663	0.00052272	5.5880	0.17895	16.161	17.319	72.450	52.355	377.47	188.66	0.95443	20.295	0.046427
298.47	64.811	16.033	0.062370	11.749	12.154	55.139	47.400	296.70	269.65	0.23258	56.411	0.080637	0.00051569	5.6055	0.17840	16.153	17.309	72.413	52.438	381.47	188.55	0.95257	20.328	0.046651
298.53	64.900	16.012	0.062454	11.760	12.165	55.176	47.459	299.16	268.76	0.23395	56.288	0.080612	0.00050869	5.6230	0.17784	16.146	17.300	72.375	52.521	385.56	188.43	0.95070	20.362	0.046878
298.59	64.990	15.990	0.062538	11.771	12.177	55.213	47.519	301.67	267.87	0.23532	56.165	0.080589	0.00050172	5.6407	0.17728	16.138	17.290	72.337	52.606	389.73	188.32	0.94882	20.396	0.047109
298.65	65.080	15.968	0.062624	11.781	12.189	55.251	47.579	304.24	266.97	0.23671	56.041	0.080568	0.00049477	5.6585	0.17672	16.130	17.280	72.299	52.691	394.00	188.21	0.94693	20.430	0.047342
298.71	65.169	15.947	0.062710	11.792	12.201	55.289	47.641	306.86	266.07	0.23812	55.917	0.080547	0.00048786	5.6764	0.17617	16.122	17.270	72.261	52.777	398.35	188.10	0.94504	20.464	0.047578
298.77	65.259	15.925	0.062796	11.803	12.213	55.326	47.703	309.54	265.17	0.23953	55.793	0.080529	0.00048097	5.6945	0.17561	16.115	17.261	72.222	52.863	402.81	187.98	0.94313	20.499	0.047817
298.83	65.349	15.902	0.062883	11.814	12.224	55.364	47.767	312.28	264.27	0.24097	55.669	0.080512	0.00047412	5.7126	0.17505	16.107	17.251	72.184	52.951	407.36	187.86	0.94122	20.534	0.048059
298.89	65.438	15.880	0.062972	11.824	12.236	55.402	47.832	315.08	263.36	0.24241	55.544	0.080497	0.00046729	5.7309	0.17449	16.099	17.241	72.145	53.040	412.01	187.75	0.93930	20.570	0.048305
298.94	65.528	15.858	0.063060	11.835	12.248	55.441	47.897	317.94	262.45	0.24387	55.419	0.080483	0.00046050	5.7493	0.17393	16.091	17.230	72.106	53.129	416.76	187.63	0.93736	20.605	0.048554
299.00	65.617	15.835	0.063150	11.846	12.260	55.479	47.964	320.87	261.54	0.24534	55.293	0.080472	0.00045373	5.7679	0.17337	16.083	17.220	72.066	53.219	421.63	187.51	0.93542	20.641	0.048806
299.06	65.707	15.813	0.063240	11.857	12.273	55.517	48.032	323.87	260.63	0.24683	55.167	0.080462	0.00044700	5.7865	0.17282	16.074	17.210	72.027	53.311	426.61	187.39	0.93346	20.678	0.049062
299.12	65.797	15.790	0.063331	11.868	12.285	55.556	48.101	326.94	259.71	0.24833	55.041	0.080454	0.00044029	5.8053	0.17226	16.066	17.200	71.987	53.403	431.71	187.27	0.93150	20.714	0.049322
299.18	65.886	15.767	0.063423	11.879	12.297	55.595	48.171	330.07	258.79	0.24984	54.914	0.080448	0.00043362	5.8243	0.17170	16.058	17.189	71.947	53.496	436.92	187.15	0.92953	20.751	0.049585
299.24	65.976	15.744	0.063516	11.890	12.309	55.634	48.243	333.29	257.87	0.25137	54.787	0.080444	0.00042697	5.8433	0.17114	16.050	17.179	71.907	53.591	442.26	187.02	0.92754	20.789	0.049853
299.30	66.066	15.721	0.063610	11.901	12.321	55.673	48.316	336.58	256.94	0.25292	54.659	0.080442	0.00042036	5.8626	0.17057	16.041	17.168	71.866	53.686	447.74	186.90	0.92555	20.827	0.050124
299.36	66.155	15.698	0.063704	11.912	12.334	55.712	48.390	339.95	256.01	0.25448	54.531	0.080442	0.00041377	5.8819	0.17001	16.033	17.157	71.826	53.782	453.34	186.78	0.92354	20.865	0.050399
299.42	66.245	15.674	0.063799	11.923	12.346	55.752	48.465	343.41	255.08	0.25606	54.403	0.080444	0.00040722	5.9014	0.16945	16.024	17.147	71.785	53.880	459.09	186.65	0.92152	20.903	0.050678
299.48	66.334	15.651	0.063896	11.935	12.358	55.791	48.542	346.95	254.14	0.25765	54.274	0.080448	0.00040070	5.9211	0.16889	16.015	17.136	71.743	53.978	464.98	186.52	0.91949	20.942	0.050961
299.54	66.424	15.627	0.063993	11.946	12.371	55.831	48.620	350.58	253.20	0.25927	54.145	0.080455	0.00039421	5.9409	0.16832	16.007	17.125	71.702	54.078	471.02	186.39	0.91745	20.981	0.051249
299.60	66.514	15.603	0.064091	11.957	12.383	55.871	48.699	354.31	252.26	0.26089	54.015	0.080464	0.00038775	5.9609	0.16776	15.998	17.114	71.660	54.179	477.21	186.26	0.91540	21.021	0.051542
299.66	66.603	15.579	0.064190	11.969	12.396	55.911	48.780	358.13	251.31	0.26254	53.885	0.080475	0.00038132	5.9810	0.16720	15.989	17.103	71.618	54.281	483.57	186.13	0.91334	21.061	0.051839
299.71	66.693	15.555	0.064290	11.980	12.409	55.951	48.863	362.05	250.36	0.26420	53.754	0.080489	0.00037492	6.0013	0.16663	15.980	17.091	71.575	54.384	490.09	186.00	0.91126	21.102	0.052141
299.77	66.783	15.530	0.064391	11.991	12.421	55.992	48.947	366.08	249.41	0.26588	53.623	0.080505	0.00036855	6.0217	0.16607	15.971	17.080	71.533	54.489	496.80	185.86	0.90917	21.142	0.052447
299.83	66.872	15.506	0.064493	12.003	12.434	56.032	49.032	370.21	248.45	0.26758	53.491	0.080524	0.00036222	6.0423	0.16550	15.962	17.069	71.490	54.595	503.68	185.73	0.90707	21.184	0.052759
299.89	66.962	15.481	0.064596	12.014	12.447	56.073	49.119	374.46	247.49	0.26929	53.359	0.080545	0.00035592	6.0631	0.16493	15.953	17.057	71.446	54.702	510.75	185.59	0.90495	21.226	0.053076
299.95	67.051	15.456	0.064700	12.026	12.460	56.114	49.208	378.82	246.53	0.27103	53.226	0.080569	0.00034964	6.0841	0.16436	15.944	17.046	71.403	54.810	518.03	185.45	0.90282	21.268	0.053398
300.01	67.141	15.431	0.064805	12.038	12.473	56.156	49.298	383.31	245.56	0.27278	53.092	0.080596	0.00034340	6.1052	0.16379	15.934	17.034	71.359	54.921	525.50	185.31	0.90068	21.310	0.053726
300.06	67.231	15.406	0.064911	12.050	12.486	56.197	49.391	387.92	244.59	0.27456	52.958	0.080626	0.00033720	6.1266	0.16322	15.925	17.022	71.315	55.032	533.20	185.17	0.89853	21.354	0.054060
300.12	67.320	15.380	0.065018	12.061	12.499	56.239	49.485	392.67	243.61	0.27635	52.824	0.080659	0.00033102	6.1481	0.16265	15.915	17.010	71.270	55.145	541.11	185.03	0.89636	21.397	0.054400
300.18	67.410	15.355	0.065127	12.073	12.512	56.281	49.581	397.56	242.63	0.27817	52.688	0.080695	0.00032488	6.1698	0.16208	15.906	16.998	71.225	55.260	549.26	184.88	0.89417	21.441	0.054745
300.24	67.499	15.329	0.065237	12.085	12.525	56.323	49.679	402.59	241.64	0.28000	52.552	0.080735	0.00031877	6.1917	0.16151	15.896	16.986	71.180	55.376	557.66	184.74	0.89197	21.486	0.055098
300.30	67.589	15.303	0.065348	12.097	12.539	56.365	49.779	407.78	240.65	0.28186	52.416	0.080777	0.00031269	6.2138	0.16093	15.886	16.974	71.134	55.494	566.31	184.59	0.88976	21.531	0.055456
300.36	67.679	15.276	0.065460	12.109	12.552	56.408	49.881	413.12	239.66	0.28374	52.279	0.080823	0.00030665	6.2361	0.16036	15.876	16.961	71.088	55.613	575.23	184.44	0.88752	21.577	0.055822
300.41	67.768	15.250	0.065574	12.121	12.566	56.451	49.985	418.63	238.66	0.28564	52.141	0.080873	0.00030064	6.2587	0.15978	15.866	16.949	71.042	55.734	584.43	184.28	0.88528	21.623	0.056194
300.47	67.858	15.223	0.065688	12.133	12.579	56.494	50.091	424.31	237.66	0.28756	52.002	0.080926	0.00029466	6.2814	0.15920	15.856	16.936	70.995	55.858	593.93	184.13	0.88301	21.670	0.056574
300.53	67.948	15.196	0.065805	12.146	12.593	56.537	50.200	430.17	236.65	0.28951	51.863	0.080983	0.00028872	6.3044	0.15862	15.846	16.924	70.948	55.983	603.73	183.97	0.88073	21.717	0.056961
300.59	68.037	15.169	0.065922	12.158	12.606	56.581	50.311	436.23	235.64	0.29148	51.723	0.081044	0.00028281	6.3276	0.15804	15.836	16.911	70.901	56.110	613.86	183.82	0.87844	21.765	0.057356
300.64	68.127	15.142	0.066041	12.170	12.620	56.625	50.424	442.48	234.62	0.29347	51.582	0.081109	0.00027693	6.3510	0.15746	15.825	16.898	70.853	56.239	624.32	183.66	0.87612	21.814	0.057759
300.70	68.216	15.114	0.066162	12.183	12.634	56.669	50.540	448.95	233.60	0.29549	51.441	0.081178	0.00027109	6.3747	0.15687	15.815	16.885	70.804	56.370	635.14	183.49	0.87379	21.863	0.058171
300.76	68.306	15.087	0.066284	12.195	12.648	56.714	50.658	455.64	232.57	0.29754	51.298	0.081251	0.00026528	6.3986	0.15628	15.804	16.871	70.755	56.503	646.34	183.33	0.87143	21.913	0.058591
300.82	68.396	15.059	0.066407	12.208	12.662	56.758	50.780	462.56	231.53	0.29961	51.155	0.081329	0.00025951	6.4228	0.15570	15.793	16.858	70.706	56.638	657.93	183.16	0.86906	21.963	0.059021
300.87	68.485	15.030	0.066533	12.221	12.676	56.803	50.904	469.73	230.49	0.30171	51.011	0.081412	0.00025377	6.4472	0.15511	15.782	16.844	70.656	56.776	669.94	182.99	0.86667	22.014	0.059460
300.93	68.575	15.002	0.066660	12.234	12.691	56.849	51.031	477.16	229.44	0.30384	50.866	0.081500	0.00024807	6.4719	0.15451	15.771	16.831	70.606	56.916	682.39	182.82	0.86426	22.066	0.059909
300.99	68.665	14.973	0.066788	12.246	12.705	56.895	51.161	484.86	228.39	0.30600	50.720	0.081593	0.00024240	6.4969	0.15392	15.760	16.817	70.555	57.059	695.30	182.64	0.86183	22.119	0.060368
301.05	68.754	14.944	0.066918	12.259	12.719	56.941	51.294	492.85	227.33	0.30818	50.573	0.081691	0.00023677	6.5221	0.15332	15.749	16.803	70.504	57.204	708.70	182.47	0.85937	22.172	0.060838
301.10	68.844	14.914	0.067050	12.272	12.734	56.987	51.431	501.15	226.26	0.31040	50.425	0.081794	0.00023118	6.5477	0.15273	15.737	16.789	70.453	57.352	722.62	182.28	0.85690	22.226	0.061320
301.16	68.933	14.884	0.067184	12.286	12.749	57.034	51.571	509.78	225.19	0.31265	50.277	0.081904	0.00022562	6.5736	0.15212	15.725	16.774	70.400	57.503	737.09	182.10	0.85440	22.281	0.061813
301.22	69.023	14.854	0.067320	12.299	12.764	57.081	51.715	518.74	224.11	0.31493	50.127	0.082019	0.00022010	6.5997	0.15152	15.714	16.760	70.347	57.657	752.13	181.91	0.85188	22.337	0.062318
301.27	69.113	14.824	0.067458	12.312	12.778	57.129	51.862	528.08	223.02	0.31724	49.976	0.082141	0.00021461	6.6262	0.15092	15.702	16.745	70.294	57.814	767.80	181.72	0.84933	22.394	0.062836
301.33	69.202	14.793	0.067598	12.326	12.794	57.177	52.013	537.80	221.92	0.31959	49.824	0.082270	0.00020916	6.6530	0.15031	15.690	16.730	70.240	57.974	784.11	181.53	0.84676	22.451	0.063368
301.39	69.292	14.762	0.067740	12.339	12.809	57.225	52.169	547.93	220.81	0.32197	49.671	0.082405	0.00020375	6.6802	0.14970	15.678	16.715	70.185	58.137	801.13	181.33	0.84416	22.509	0.063914
301.44	69.382	14.731	0.067885	12.353	12.824	57.274	52.329	558.51	219.69	0.32439	49.516	0.082548	0.00019838	6.7077	0.14908	15.665	16.700	70.130	58.304	818.88	181.13	0.84154	22.569	0.064474
301.50	69.471	14.699	0.068031	12.367	12.839	57.323	52.494	569.55	218.57	0.32685	49.361	0.082699	0.00019304	6.7356	0.14847	15.653	16.684	70.074	58.475	837.43	180.93	0.83888	22.629	0.065051
301.56	69.561	14.667	0.068180	12.381	12.855	57.373	52.663	581.10	217.44	0.32935	49.204	0.082857	0.00018775	6.7638	0.14784	15.640	16.668	70.018	58.650	856.82	180.72	0.83620	22.690	0.065643
301.61	69.650	14.635	0.068332	12.395	12.871	57.423	52.837	593.19	216.29	0.33189	49.045	0.083024	0.00018249	6.7925	0.14722	15.627	16.652	69.961	58.828	877.11	180.51	0.83349	22.752	0.066253
301.67	69.740	14.602	0.068486	12.409	12.887	57.473	53.017	605.86	215.14	0.33446	48.886	0.083201	0.00017727	6.8216	0.14659	15.614	16.636	69.903	59.011	898.37	180.29	0.83075	22.816	0.066881
301.73	69.830	14.568	0.068642	12.423	12.903	57.525	53.202	619.14	213.97	0.33709	48.725	0.083386	0.00017210	6.8510	0.14596	15.600	16.620	69.844	59.198	920.66	180.07	0.82798	22.880	0.067529
301.78	69.919	14.535	0.068802	12.438	12.919	57.576	53.393	633.09	212.79	0.33976	48.562	0.083582	0.00016696	6.8810	0.14533	15.587	16.603	69.784	59.390	944.06	179.84	0.82517	22.946	0.068196
301.84	70.009	14.500	0.068964	12.452	12.935	57.628	53.591	647.76	211.60	0.34247	48.398	0.083788	0.00016186	6.9113	0.14469	15.573	16.586	69.724	59.587	968.67	179.61	0.82233	23.013	0.068886
301.89	70.099	14.466	0.069129	12.467	12.952	57.681	53.795	663.20	210.40	0.34524	48.232	0.084006	0.00015681	6.9422	0.14405	15.559	16.569	69.663	59.789	994.56	179.37	0.81945	23.081	0.069598
301.95	70.188	14.431	0.069297	12.482	12.969	57.735	54.006	679.49	209.18	0.34805	48.065	0.084236	0.00015179	6.9735	0.14340	15.545	16.552	69.601	59.997	1021.8	179.13	0.81654	23.150	0.070334
302.01	70.278	14.395	0.069469	12.497	12.986	57.789	54.225	696.68	207.95	0.35092	47.896	0.084479	0.00014682	7.0054	0.14275	15.531	16.534	69.538	60.210	1050.6	178.88	0.81359	23.221	0.071096
302.06	70.367	14.359	0.069644	12.513	13.003	57.843	54.451	714.86	206.70	0.35384	47.725	0.084735	0.00014189	7.0378	0.14209	15.516	16.516	69.474	60.430	1081.1	178.62	0.81059	23.294	0.071886
302.12	70.457	14.322	0.069823	12.528	13.020	57.899	54.686	734.11	205.44	0.35682	47.552	0.085007	0.00013701	7.0707	0.14143	15.501	16.497	69.409	60.656	1113.3	178.36	0.80756	23.367	0.072704
302.17	70.547	14.285	0.070005	12.544	13.038	57.955	54.930	754.54	204.16	0.35986	47.376	0.085294	0.00013217	7.1042	0.14076	15.486	16.479	69.343	60.890	1147.4	178.09	0.80448	23.443	0.073554
302.23	70.636	14.247	0.070192	12.560	13.055	58.011	55.184	776.24	202.86	0.36297	47.199	0.085598	0.00012737	7.1384	0.14009	15.470	16.460	69.276	61.130	1183.6	177.81	0.80135	23.520	0.074438
302.28	70.726	14.208	0.070382	12.576	13.073	58.069	55.448	799.35	201.55	0.36614	47.020	0.085920	0.00012262	7.1732	0.13941	15.454	16.440	69.208	61.379	1222.2	177.53	0.79818	23.599	0.075357
302.34	70.815	14.169	0.070577	12.592	13.092	58.127	55.723	824.01	200.21	0.36937	46.838	0.086262	0.00011791	7.2086	0.13872	15.438	16.421	69.138	61.636	1263.2	177.23	0.79495	23.679	0.076315
302.40	70.905	14.129	0.070777	12.608	13.110	58.187	56.010	850.37	198.86	0.37268	46.654	0.086625	0.00011326	7.2448	0.13803	15.422	16.401	69.068	61.903	1307.1	176.93	0.79167	23.762	0.077315
302.45	70.995	14.088	0.070981	12.625	13.129	58.247	56.310	878.61	197.48	0.37607	46.467	0.087011	0.00010864	7.2817	0.13733	15.405	16.380	68.996	62.179	1354.0	176.61	0.78834	23.846	0.078359
302.51	71.084	14.047	0.071190	12.642	13.148	58.308	56.623	908.94	196.08	0.37953	46.277	0.087423	0.00010408	7.3194	0.13662	15.388	16.359	68.922	62.465	1404.3	176.29	0.78495	23.933	0.079452
302.56	71.174	14.005	0.071405	12.659	13.168	58.370	56.952	941.59	194.65	0.38308	46.084	0.087862	9.9568e-05	7.3580	0.13591	15.370	16.338	68.847	62.763	1458.3	175.95	0.78149	24.022	0.080598
302.62	71.264	13.961	0.071626	12.677	13.187	58.434	57.296	976.85	193.20	0.38672	45.889	0.088332	9.5105e-05	7.3974	0.13518	15.352	16.316	68.771	63.073	1516.6	175.60	0.77798	24.114	0.081800
302.67	71.353	13.917	0.071853	12.695	13.208	58.498	57.659	1015.0	191.72	0.39044	45.689	0.088834	9.0693e-05	7.4378	0.13445	15.334	16.293	68.693	63.396	1579.5	175.24	0.77439	24.208	0.083066
302.73	71.443	13.872	0.072086	12.713	13.228	58.564	58.040	1056.5	190.21	0.39427	45.487	0.089373	8.6334e-05	7.4791	0.13371	15.315	16.270	68.613	63.734	1647.7	174.86	0.77073	24.304	0.084400
302.78	71.532	13.826	0.072327	12.732	13.249	58.631	58.443	1101.6	188.66	0.39820	45.281	0.089952	8.2028e-05	7.5215	0.13295	15.296	16.247	68.531	64.088	1721.9	174.47	0.76699	24.404	0.085809
302.84	71.622	13.779	0.072575	12.751	13.270	58.699	58.868	1151.0	187.09	0.40223	45.070	0.090576	7.7776e-05	7.5650	0.13219	15.276	16.223	68.447	64.458	1802.7	174.06	0.76317	24.507	0.087302
302.89	71.712	13.730	0.072831	12.770	13.292	58.769	59.318	1205.3	185.47	0.40639	44.856	0.091251	7.3580e-05	7.6098	0.13141	15.255	16.198	68.361	64.848	1891.2	173.63	0.75927	24.613	0.088886
302.95	71.801	13.681	0.073095	12.790	13.315	58.841	59.797	1265.0	183.82	0.41066	44.636	0.091981	6.9442e-05	7.6558	0.13062	15.234	16.172	68.273	65.258	1988.5	173.18	0.75527	24.722	0.090572
303.00	71.891	13.630	0.073369	12.810	13.337	58.914	60.306	1331.2	182.12	0.41507	44.412	0.092776	6.5363e-05	7.7032	0.12982	15.213	16.146	68.183	65.691	2095.9	172.70	0.75117	24.836	0.092373
303.06	71.981	13.577	0.073654	12.831	13.361	58.989	60.849	1404.9	180.38	0.41961	44.183	0.093642	6.1344e-05	7.7522	0.12900	15.190	16.119	68.089	66.150	2214.9	172.20	0.74697	24.954	0.094302
303.11	72.070	13.523	0.073949	12.852	13.385	59.066	61.430	1487.3	178.60	0.42430	43.947	0.094590	5.7387e-05	7.8027	0.12816	15.167	16.091	67.993	66.637	2347.7	171.67	0.74265	25.076	0.096375
303.16	72.160	13.467	0.074256	12.874	13.410	59.146	62.054	1580.1	176.76	0.42915	43.706	0.095633	5.3495e-05	7.8551	0.12731	15.143	16.062	67.894	67.156	2496.5	171.11	0.73821	25.203	0.098613
303.22	72.249	13.409	0.074577	12.896	13.435	59.228	62.725	1685.2	174.86	0.43417	43.457	0.096784	4.9669e-05	7.9093	0.12643	15.118	16.032	67.791	67.711	2664.3	170.51	0.73364	25.336	0.10104
303.27	72.339	13.349	0.074912	12.920	13.462	59.312	63.451	1805.3	172.90	0.43937	43.201	0.098064	4.5912e-05	7.9658	0.12554	15.092	16.001	67.684	68.306	2855.1	169.87	0.72893	25.475	0.10368
303.33	72.429	13.287	0.075264	12.944	13.489	59.400	64.239	1943.5	170.87	0.44476	42.937	0.099494	4.2227e-05	8.0245	0.12462	15.066	15.968	67.574	68.949	3073.6	169.19	0.72406	25.621	0.10658
303.38	72.518	13.222	0.075633	12.969	13.517	59.491	65.097	2104.2	168.78	0.45036	42.663	0.10110	3.8616e-05	8.0859	0.12367	15.037	15.934	67.458	69.646	3326.0	168.45	0.71902	25.774	0.10977
303.43	72.608	13.154	0.076023	12.994	13.546	59.585	66.038	2293.0	166.60	0.45619	42.379	0.10293	3.5082e-05	8.1503	0.12270	15.008	15.899	67.338	70.406	3620.7	167.64	0.71380	25.935	0.11331
303.49	72.698	13.083	0.076436	13.021	13.577	59.684	67.074	2517.6	164.33	0.46226	42.083	0.10502	3.1630e-05	8.2180	0.12168	14.977	15.862	67.212	71.240	3968.9	166.76	0.70837	26.106	0.11727
303.54	72.787	13.008	0.076876	13.049	13.609	59.787	68.223	2788.5	161.97	0.46860	41.775	0.10743	2.8264e-05	8.2894	0.12064	14.944	15.822	67.079	72.163	4385.9	165.80	0.70271	26.288	0.12175
303.60	72.877	12.929	0.077346	13.079	13.643	59.896	69.506	3121.2	159.49	0.47523	41.451	0.11026	2.4989e-05	8.3652	0.11954	14.910	15.781	66.939	73.193	4893.4	164.73	0.69679	26.482	0.12687
303.65	72.966	12.845	0.077851	13.110	13.678	60.011	70.953	3537.8	156.89	0.48218	41.110	0.11362	2.1810e-05	8.4461	0.11840	14.873	15.737	66.789	74.356	5523.2	163.53	0.69058	26.691	0.13280
303.70	73.056	12.755	0.078399	13.144	13.716	60.134	72.602	4072.6	154.15	0.48947	40.748	0.11768	1.8734e-05	8.5331	0.11719	14.833	15.689	66.630	75.686	6323.5	162.17	0.68404	26.918	0.13978
303.76	73.146	12.658	0.078999	13.179	13.757	60.266	74.507	4780.8	151.24	0.49715	40.361	0.12272	1.5770e-05	8.6274	0.11591	14.790	15.638	66.458	77.231	7370.9	160.61	0.67711	27.166	0.14817
303.81	73.235	12.553	0.079663	13.218	13.802	60.410	76.744	5756.1	148.13	0.50527	39.944	0.12912	1.2929e-05	8.7309	0.11454	14.743	15.582	66.270	79.067	8794.7	158.77	0.66972	27.442	0.15853
303.86	73.325	12.436	0.080411	13.261	13.850	60.568	79.434	7171.8	144.76	0.51388	39.488	0.13760	1.0224e-05	8.8461	0.11304	14.691	15.520	66.062	81.310	10831.	156.57	0.66177	27.752	0.17177
303.92	73.415	12.305	0.081271	13.309	13.905	60.746	82.775	9384.0	141.05	0.52307	38.979	0.14943	7.6721e-06	8.9773	0.11139	14.632	15.449	65.827	84.165	13958.	153.84	0.65311	28.109	0.18958
303.97	73.504	12.151	0.082296	13.364	13.969	60.953	87.135	13249.	136.86	0.53298	38.396	0.16733	5.3002e-06	9.1315	0.10951	14.562	15.367	65.554	88.031	19311.	150.26	0.64350	28.536	0.21541
304.02	73.594	11.963	0.083591	13.432	14.047	61.208	93.343	21423.	131.84	0.54385	37.690	0.19840	3.1486e-06	9.3234	0.10726	14.477	15.266	65.218	93.867	30351.	145.17	0.63250	29.076	0.25814